File: battery-analytics-lab/data/raw/calce/CS2_35_2_10_11_Statistics_1-008.csv
Cycle_Index,Test_Time(s),Date_Time,Current(A),Voltage(V),Charge_Capacity(Ah),Discharge_Capacity(Ah),Charge_Energy(Wh),Discharge_Energy(Wh),Internal_Resistance(Ohm),AC_Impedance(Ohm),ACI_Phase_Angle(Deg),Charge_Time(s),DisCharge_Time(s),Vmax_On_Cycle(V)
1,3663.96,2011-01-31 11:52:10,0.000522585,3.70703,0.0611695,0.500406,0.256891,1.72137,0.115289,0,0,1665.13,1638.77,4.20062
2,10755.2,2011-01-31 13:50:22,0.000703194,3.71691,0.556212,0.975163,2.29101,3.34653,0.116701,0,0,5176.41,1554.79,4.20014
3,17712.7,2011-01-31 15:46:21,0.000703194,3.7208,1.02844,1.43967,4.23465,4.93349,0.118322,0,0,5076.18,1521.22,4.20014
4,24598.5,2011-01-31 17:41:08,0.000703194,3.7208,1.49148,1.89991,6.14158,6.50577,0.119025,0,0,5018.48,1507.26,4.20014
5,31420.8,2011-01-31 19:34:51,0.000703194,3.72986,1.95029,2.3425,8.03156,8.01165,0.119727,0,0,5012.6,1449.55,4.20014
6,38117.5,2011-01-31 21:26:29,0.000341975,3.73375,2.39169,2.77489,9.85189,9.4804,0.119727,0,0,4920.49,1416.13,4.20014
7,44724.5,2011-01-31 23:16:37,0.000522585,3.73666,2.82325,3.19954,11.6326,10.9214,0.120753,0,0,4856.26,1390.76,4.20014
8,51258.2,2011-02-01 01:05:32,0.000703194,3.7386,3.24725,3.6178,13.3829,12.3397,0.119133,0,0,4803.78,1369.83,4.20014
9,57741,2011-02-01 02:53:36,0.000522585,3.74038,3.66513,4.03055,15.1084,13.7384,0.119835,0,0,4770.81,1351.85,4.20014
10,64166,2011-02-01 04:40:42,0.000883803,3.74233,4.07745,4.43791,16.8114,15.118,0.119943,0,0,4730.83,1334.18,4.20014
11,70527.3,2011-02-01 06:26:45,0.000883803,3.74637,4.48447,4.83623,18.493,16.4656,0.121344,0,0,4696.58,1304.57,4.20014
12,76821.1,2011-02-01 08:11:40,0.000341975,3.74589,4.88255,5.2336,20.1384,17.81,0.119835,0,0,4632.28,1301.52,4.20014
13,83113.6,2011-02-01 09:56:33,0.000703194,3.74492,5.27996,5.63112,21.7811,19.1554,0.122264,0,0,4630.42,1301.97,4.20014
14,89410.3,2011-02-01 11:41:31,0.000522585,3.74152,5.67778,6.03349,23.4252,20.5196,0.120052,0,0,4618.81,1317.84,4.20014
15,95726.1,2011-02-01 13:26:48,0.000883803,3.74168,6.08028,6.43482,25.0882,21.881,0.119943,0,0,4641.25,1314.46,4.20014
16,102019,2011-02-01 15:11:42,0.000522585,3.74281,6.48157,6.83275,26.7462,23.2311,0.120644,0,0,4629.42,1303.28,4.20014
17,108273,2011-02-01 16:55:58,0.000883803,3.74394,6.87941,7.22783,28.3902,24.5713,0.120052,0,0,4600.22,1293.77,4.20014
18,114490,2011-02-01 18:39:36,0.000703194,3.74767,7.27429,7.61484,30.0224,25.883,0.120753,0,0,4589.62,1267.54,4.20014
19,120625,2011-02-01 20:21:52,0.000341975,3.75107,7.66082,7.99431,31.6208,27.1667,0.121564,0,0,4531.91,1242.64,4.20014
20,126695,2011-02-01 22:03:03,0.000522585,3.75333,8.04009,8.36813,33.1898,28.4306,0.122264,0,0,4485.47,1224.4,4.2003
21,129315,2011-02-01 22:46:44,0.000703194,3.74394,8.25007,8.63557,34.0485,29.3306,0.124806,0,0,1383.96,876.079,4.20014
22,135909,2011-02-02 00:36:40,0.000161366,3.7556,8.67982,9.00414,35.8237,30.5764,0.122264,0,0,5027.04,1207.19,4.20014
23,141900,2011-02-02 02:16:32,0.000522585,3.75657,9.049,9.36928,37.3518,31.81,0.121564,0,0,4435.26,1195.92,4.20014
24,147834,2011-02-02 03:55:27,0.000341975,3.75819,9.41414,9.72986,38.8633,33.0276,0.122596,0,0,4392.3,1180.97,4.20014
25,150351,2011-02-02 04:37:25,0.000341975,3.74718,9.61267,9.98869,39.6758,33.8976,0.125616,0,0,1309.2,847.845,4.20014
26,153099,2011-02-02 05:23:14,0.000883803,3.75285,9.85287,10.2349,40.6565,34.7252,0.127007,0,0,1581.86,806.567,4.20014
27,159714,2011-02-02 07:13:30,0.000341975,3.76127,10.277,10.5883,42.4098,35.9172,0.122264,0,0,5097.6,1157.11,4.20014
28,165582,2011-02-02 08:51:20,0.000161366,3.76191,10.6317,10.9388,43.8791,37.0994,0.122962,0,0,4359.86,1148.02,4.20014
29,171401,2011-02-02 10:28:20,0.000522585,3.75916,10.9827,11.2932,45.3334,38.2945,0.122962,0,0,4298.57,1160.47,4.20014
30,177226,2011-02-02 12:05:26,0.000341975,3.75754,11.3375,11.65,46.8025,39.5001,0.120753,0,0,4296.32,1168.67,4.20014
31,179721,2011-02-02 12:47:02,0.000161366,3.74718,11.5339,11.9063,47.6064,40.3624,0.126198,0,0,1295.34,839.566,4.20014
32,186170,2011-02-02 14:34:32,0.000161366,3.75479,11.9498,12.268,49.3253,41.5861,0.122264,0,0,4903.92,1184.69,4.20014
33,192068,2011-02-02 16:12:51,0.000522585,3.75431,12.3123,12.6297,50.8257,42.8089,0.121454,0,0,4353.67,1184.53,4.20014
34,197938,2011-02-02 17:50:43,0.000703194,3.7556,12.6739,12.9878,52.3224,44.0188,0.121674,0,0,4337.05,1172.76,4.20014
35,203751,2011-02-02 19:27:37,0.000341975,3.7611,13.0314,13.3353,53.8027,45.1904,0.122374,0,0,4314.74,1138.07,4.20014
36,209461,2011-02-02 21:02:48,0.000703194,3.76693,13.3779,13.671,55.2385,46.3194,0.121564,0,0,4250.21,1099.59,4.20014
37,215081,2011-02-02 22:36:29,0.000341975,3.76823,13.7133,14.0033,56.629,47.4359,0.122485,0,0,4171.63,1088.57,4.20014
38,220663,2011-02-03 00:09:32,0.000883803,3.76985,14.0454,14.3319,58.0057,48.5391,0.121674,0,0,4145.45,1076.2,4.20014
39,226191,2011-02-03 01:41:42,0.000341975,3.77098,14.3735,14.6571,59.3666,49.6301,0.122962,0,0,4103.18,1065.25,4.20014
40,231692,2011-02-03 03:13:24,0.000161366,3.77179,14.6986,14.9798,60.7147,50.7122,0.122374,0,0,4084.13,1056.98,4.20014
41,237168,2011-02-03 04:44:41,0.000522585,3.77292,15.0211,15.2998,62.0528,51.7847,0.122264,0,0,4067.46,1047.81,4.20014
42,242604,2011-02-03 06:15:18,0.000341975,3.77454,15.3408,15.6164,63.3788,52.845,0.122374,0,0,4039.52,1036.51,4.20014
43,248007,2011-02-03 07:45:22,0.000522585,3.77584,15.6571,15.9298,64.6913,53.8945,0.122374,0,0,4016.24,1026.7,4.20014
44,253392,2011-02-03 09:15:08,0.000703194,3.77486,15.9705,16.2445,65.9921,54.9486,0.122962,0,0,3993.9,1030.86,4.20014
45,258782,2011-02-03 10:45:00,0.000161366,3.77341,16.2853,16.5609,67.2982,56.0086,0.122374,0,0,3994.43,1036.04,4.20014
46,264184,2011-02-03 12:15:03,0.000703194,3.77308,16.6017,16.8777,68.6113,57.0717,0.120972,0,0,4003.76,1037.73,4.20014
47,269568,2011-02-03 13:44:48,0.000522585,3.77454,16.9184,17.1915,69.9249,58.1236,0.124693,0,0,3996.09,1027.67,4.20014
48,274918,2011-02-03 15:13:59,0.000703194,3.77713,17.2318,17.5,71.2254,59.1568,0.124468,0,0,3980.09,1010.31,4.20014
49,280236,2011-02-03 16:42:39,0.000522585,3.77584,17.5402,17.81,72.5059,60.195,0.123883,0,0,3942.91,1015.3,4.20014
50,285528,2011-02-03 18:10:51,0.000161366,3.77924,17.8499,18.1136,73.7911,61.2111,0.123185,0,0,3936.73,994.581,4.20014