File: battery-analytics-lab/data/raw/calce/CS2_35_12_13_10_Statistics_1-008.csv
Cycle_Index,Test_Time(s),Date_Time,Current(A),Voltage(V),Charge_Capacity(Ah),Discharge_Capacity(Ah),Charge_Energy(Wh),Discharge_Energy(Wh),Internal_Resistance(Ohm),AC_Impedance(Ohm),ACI_Phase_Angle(Deg),Charge_Time(s),DisCharge_Time(s),Vmax_On_Cycle(V)
1,11283.7,2010-12-06 15:41:31,0.000522585,3.38877,0.92954,0.932002,3.73804,3.37943,0.0947342,0,0,7871.99,3051.66,4.20014
2,22492.1,2010-12-06 18:48:21,0.000522585,3.39994,1.86306,1.86112,7.48038,6.74648,0.0961798,0,0,7806.08,3042.21,4.20014
3,33713.3,2010-12-06 21:55:23,0.000341975,3.38488,2.79133,2.79239,11.2042,10.1254,0.0946487,0,0,7811.95,3049.16,4.20014
4,44885.3,2010-12-07 01:01:36,0.000341975,3.3763,3.72475,3.72769,14.9435,13.5254,0.0924722,0,0,7749.79,3062.15,4.20014
5,56053.3,2010-12-07 04:07:46,0.000703194,3.37517,4.66,4.66304,18.6883,16.9266,0.0939245,0,0,7745.81,3062.13,4.20014
6,67236.5,2010-12-07 07:14:10,0.000341975,3.40577,5.59256,5.58799,22.4228,20.2771,0.0963536,0,0,7794.57,3028.55,4.2003
7,78405.9,2010-12-07 10:20:21,0.000883803,3.40965,6.51657,6.51037,26.1302,23.6171,0.0978845,0,0,7789.11,3020.19,4.20014
8,89555.3,2010-12-07 13:26:12,0.000883803,3.40738,7.43868,7.43241,29.8301,26.9564,0.0963536,0,0,7770.58,3018.83,4.20014
9,100685,2010-12-07 16:31:43,0.000161366,3.41095,8.35998,8.35245,33.5262,30.2872,0.0956303,0,0,7757.55,3012.38,4.20014
10,111821,2010-12-07 19:37:20,0.000161366,3.41337,9.27928,9.27086,37.2156,33.6109,0.0955439,0,0,7768.25,3007.02,4.20014
11,122965,2010-12-07 22:43:06,0.000341975,3.39006,10.1984,10.1953,40.9047,36.9654,0.0955439,0,0,7758.11,3026.52,4.20014
12,134098,2010-12-08 01:48:40,0.000703194,3.38456,11.1232,11.1216,44.6111,40.3296,0.0931148,0,0,7740.43,3032.54,4.20014
13,145245,2010-12-08 04:54:28,0.000703194,3.38278,12.0497,12.0484,48.3231,43.697,0.0932833,0,0,7751.78,3034.43,4.20014
14,156417,2010-12-08 08:00:41,0.000703194,3.41904,12.9737,12.9636,52.0281,47.0084,0.0970756,0,0,7815.75,2996.74,4.20014
15,167549,2010-12-08 11:06:14,0.000883803,3.42131,13.8885,13.8769,55.7012,50.3129,0.0971633,0,0,7780.84,2990.66,4.20014
16,178655,2010-12-08 14:11:22,0.000883803,3.42034,14.8022,14.79,59.3689,53.6167,0.0963536,0,0,7756.48,2989.94,4.20014
17,189763,2010-12-08 17:16:31,0.000522585,3.42422,15.715,15.7012,63.033,56.9122,0.0955439,0,0,7764.24,2983.57,4.2003
18,200864,2010-12-08 20:21:33,0.000883803,3.41839,16.626,16.613,66.6907,60.2114,0.0955439,0,0,7754.71,2985.63,4.2003
19,211965,2010-12-08 23:26:35,0.000883803,3.39427,17.5393,17.5317,70.357,63.5449,0.093199,0,0,7732.74,3008.05,4.20014
20,223072,2010-12-09 02:31:44,0.000703194,3.39265,18.4583,18.451,74.041,66.8821,0.0947342,0,0,7737.69,3010.15,4.2003
21,234163,2010-12-09 05:36:36,0.000703194,3.40819,19.3777,19.3664,77.7263,70.2026,0.0940094,0,0,7733.11,2997.65,4.20014
22,245267,2010-12-09 08:41:41,0.00106441,3.42487,20.2902,20.2747,81.3886,73.487,0.0949057,0,0,7769.6,2973.86,4.2003
23,256367,2010-12-09 11:46:42,0.00106441,3.43296,21.1981,21.1798,85.0349,76.7562,0.0940945,0,0,7775.84,2963.82,4.2003
24,267426,2010-12-09 14:51:03,0.000522585,3.42034,22.1038,22.0878,88.6716,80.0418,0.0969007,0,0,7726.64,2972.97,4.2003
25,278503,2010-12-09 17:55:41,0.000703194,3.43264,23.0114,22.9921,92.3154,83.3109,0.096528,0,0,7755.17,2961.25,4.2003
26,289565,2010-12-09 21:00:05,0.000522585,3.43636,23.9147,23.8939,95.9437,86.568,0.0933678,0,0,7749.99,2952.64,4.2003
27,300600,2010-12-10 00:04:01,0.000883803,3.40188,24.8189,24.8058,99.5738,89.8754,0.0940945,0,0,7688.75,2985.76,4.2003
28,311672,2010-12-10 03:08:35,0.00106441,3.39848,25.7312,25.719,103.232,93.1893,0.0947342,0,0,7722.28,2990.13,4.20014
29,322661,2010-12-10 06:11:45,0.000883803,3.42713,26.6434,26.624,106.889,96.4641,0.0956303,0,0,7665,2963.57,4.20014
30,333718,2010-12-10 09:16:03,0.000883803,3.43717,27.5462,27.5239,110.515,99.7144,0.0963536,0,0,7750.22,2946.52,4.2003
31,344747,2010-12-10 12:19:54,0.000522585,3.42633,28.4466,28.4262,114.133,102.978,0.0949057,0,0,7714.91,2954.47,4.2003
32,355794,2010-12-10 15:24:01,0.000703194,3.42616,29.349,29.3282,117.757,106.24,0.0954577,0,0,7732.62,2953.88,4.2003
33,366828,2010-12-10 18:27:57,0.000883803,3.42989,30.2508,30.2287,121.378,109.497,0.0955439,0,0,7725.86,2948.57,4.20014
34,377876,2010-12-10 21:32:06,0.000883803,3.41791,31.1505,31.131,124.992,112.761,0.0954577,0,0,7733.53,2954.39,4.2003
35,388898,2010-12-11 00:35:49,0.000883803,3.40593,32.0549,32.038,128.622,116.05,0.0940945,0,0,7691.48,2969.83,4.20014
36,399925,2010-12-11 03:39:37,0.00106441,3.40544,32.9622,32.9453,132.261,119.341,0.0940094,0,0,7695.84,2970.9,4.20014
37,410948,2010-12-11 06:43:22,0.000522585,3.40366,33.8696,33.8531,135.9,122.634,0.0946487,0,0,7691.48,2971.9,4.20014
38,421961,2010-12-11 09:46:56,0.000522585,3.40269,34.7773,34.7609,139.54,125.928,0.0938397,0,0,7680.23,2972.4,4.20014
39,429884,2010-12-11 11:59:00,0.000883803,3.39443,35.5439,35.5359,142.587,128.714,0.0947342,0,0,5025.46,2537.7,4.20014
40,440993,2010-12-11 15:04:10,0.00106441,3.4001,36.4591,36.4434,146.256,132.008,0.0947342,0,0,7777.15,2971.26,4.20014
41,452006,2010-12-11 18:07:45,0.000703194,3.39848,37.3676,37.3516,149.898,135.306,0.0955439,0,0,7679.75,2973.73,4.20014
42,463013,2010-12-11 21:11:13,0.000883803,3.39702,38.2761,38.2601,153.54,138.606,0.0938397,0,0,7672.28,2974.71,4.20014
43,474013,2010-12-12 00:14:34,0.000703194,3.39621,39.1847,39.1687,157.182,141.906,0.0924722,0,0,7664.72,2974.95,4.20014
44,485009,2010-12-12 03:17:52,0.000522585,3.39589,40.0934,40.0773,160.824,145.206,0.093199,0,0,7661.49,2974.81,4.20014
45,496000,2010-12-12 06:21:04,0.000703194,3.3946,41.0019,40.986,164.465,148.508,0.0940094,0,0,7654.97,2975.26,4.20014
46,506990,2010-12-12 09:24:16,0.000522585,3.39314,41.9108,41.895,168.107,151.811,0.0931148,0,0,7654.6,2976.1,4.20014
47,517966,2010-12-12 12:27:13,0.000522585,3.39427,42.8196,42.8033,171.748,155.111,0.093199,0,0,7641.62,2974.01,4.20014
48,528938,2010-12-12 15:30:06,0.000703194,3.39346,43.7278,43.7116,175.388,158.412,0.091661,0,0,7638.16,2973.85,4.20014
49,539904,2010-12-12 18:32:53,0.000883803,3.39298,44.6362,44.6199,179.027,161.714,0.0939245,0,0,7631.8,2973.87,4.20014
50,550868,2010-12-12 21:35:39,0.00106441,3.39217,45.5445,45.5283,182.666,165.016,0.0945634,0,0,7629.92,2974.2,4.20014