File: battery-analytics-lab/data/raw/calce/CS2_35_12_06_10_Statistics_1-008.csv
Cycle_Index,Test_Time(s),Date_Time,Current(A),Voltage(V),Charge_Capacity(Ah),Discharge_Capacity(Ah),Charge_Energy(Wh),Discharge_Energy(Wh),Internal_Resistance(Ohm),AC_Impedance(Ohm),ACI_Phase_Angle(Deg),Charge_Time(s),DisCharge_Time(s),Vmax_On_Cycle(V)
1,6936.1,2010-11-29 12:29:15,0.000522585,3.35461,0.288819,0.945439,1.20301,3.43221,0.0940094,0,0,3480.44,3095.59,4.20014
2,18179.4,2010-11-29 15:36:39,0.000522585,3.3865,1.23316,1.88477,4.98524,6.83486,0.0964407,0,0,7807.72,3075.53,4.20014
3,29413.3,2010-11-29 18:43:55,0.000703194,3.37614,2.17163,2.82678,8.74871,10.2477,0.0956303,0,0,7789.23,3084.6,4.20014
4,40728.2,2010-11-29 21:52:31,0.000883803,3.35315,3.11269,3.77464,12.5236,13.6887,0.0947342,0,0,7851.3,3103.48,4.20014
5,51998.9,2010-11-30 01:00:23,0.000341975,3.33858,4.0631,4.73035,16.3274,17.1691,0.093199,0,0,7781.59,3129.02,4.20014
6,63289.4,2010-11-30 04:08:35,0.000341975,3.33583,5.01874,5.68839,20.1491,20.6599,0.0939245,0,0,7793.85,3136.65,4.20014
7,74651.6,2010-11-30 07:17:58,0.000883803,3.37792,5.9734,6.63544,23.9673,24.0928,0.0947342,0,0,7901.19,3100.91,4.2003
8,86027.5,2010-11-30 10:27:35,0.000703194,3.3844,6.91894,7.57972,27.76,27.5112,0.0947342,0,0,7923.89,3091.98,4.2003
9,97372.6,2010-11-30 13:36:42,0.000883803,3.38618,7.86314,8.52367,31.5471,30.9288,0.0971633,0,0,7894.1,3090.91,4.2003
10,108731,2010-11-30 16:46:02,0.000703194,3.39249,8.80612,9.46533,35.3303,34.3351,0.0978845,0,0,7915.15,3083.5,4.2003
11,120068,2010-11-30 19:55:00,0.000703194,3.3946,9.74691,10.4056,39.1054,37.7346,0.0964407,0,0,7897.96,3078.86,4.2003
12,131413,2010-11-30 23:04:06,0.000703194,3.35866,10.6887,11.3552,42.8856,41.1837,0.0939245,0,0,7876.18,3108.69,4.20014
13,142733,2010-12-01 02:12:47,0.000703194,3.35008,11.6392,12.3081,46.6906,44.6501,0.093199,0,0,7839.82,3119.66,4.20014
14,154037,2010-12-01 05:21:13,0.000522585,3.36319,12.5921,13.2588,50.5033,48.1092,0.093199,0,0,7831.79,3112.54,4.20014
15,165384,2010-12-01 08:30:21,0.000883803,3.39476,13.5389,14.1988,54.2981,51.5097,0.0957168,0,0,7909.17,3077.56,4.2003
16,176751,2010-12-01 11:39:49,0.000522585,3.39281,14.4785,15.1383,58.069,54.91,0.0955439,0,0,7930.89,3076.38,4.2003
17,188094,2010-12-01 14:48:54,0.000703194,3.39994,15.4171,16.0751,61.8349,58.2971,0.0964407,0,0,7915.34,3067.63,4.2003
18,199440,2010-12-01 17:58:01,0.000522585,3.40059,16.353,17.0106,65.5918,61.6788,0.0977963,0,0,7922.16,3063.22,4.20014
19,210805,2010-12-01 21:07:27,0.000883803,3.39735,17.2877,17.9457,69.3448,65.0583,0.0971633,0,0,7942.65,3061.98,4.20014
20,222097,2010-12-02 00:15:40,0.000703194,3.36481,18.2254,18.8902,73.1047,68.4888,0.0940094,0,0,7839.86,3092.58,4.20014
21,233407,2010-12-02 03:24:11,0.000341975,3.36011,19.1703,19.8365,76.8888,71.9289,0.0946487,0,0,7851.39,3098.22,4.20014
22,244645,2010-12-02 06:31:31,0.000883803,3.39654,20.1142,20.7726,80.6668,75.3168,0.0955439,0,0,7812.66,3065.35,4.20014
23,255970,2010-12-02 09:40:17,0.000341975,3.39994,21.0492,21.7065,84.4197,78.6953,0.0963536,0,0,7907.36,3057.89,4.20014
24,267262,2010-12-02 12:48:31,0.000883803,3.39443,21.9837,22.6418,88.1691,82.0829,0.0963536,0,0,7869.28,3062.5,4.20014
25,278551,2010-12-02 15:56:41,0.000341975,3.39573,22.9186,23.5762,91.9188,85.4663,0.0956303,0,0,7869.36,3059.61,4.20014
26,289848,2010-12-02 19:04:59,0.000703194,3.39719,23.8529,24.5099,95.666,88.8474,0.0949057,0,0,7879.06,3057.43,4.20014
27,301185,2010-12-02 22:13:58,0.000703194,3.36983,24.7859,25.4489,99.4091,92.256,0.0925559,0,0,7903.31,3074.13,4.20014
28,312460,2010-12-03 01:21:54,0.000161366,3.36222,25.7265,26.3915,103.176,95.6828,0.0939245,0,0,7828.75,3085.96,4.20014
29,323729,2010-12-03 04:29:44,0.000522585,3.35947,26.669,27.3349,106.949,99.1142,0.0940094,0,0,7819.97,3088.62,4.20014
30,335026,2010-12-03 07:38:02,0.000883803,3.40042,27.6098,28.267,110.717,102.49,0.0969881,0,0,7885.24,3052.05,4.20014
31,346290,2010-12-03 10:45:48,0.000703194,3.39751,28.5413,29.1986,114.454,105.865,0.0949057,0,0,7853.33,3050.52,4.20014
32,357539,2010-12-03 13:53:18,0.00106441,3.39589,29.4728,30.1302,118.189,109.24,0.0947342,0,0,7839.14,3050.25,4.20014
33,368793,2010-12-03 17:00:53,0.000522585,3.39719,30.4041,31.061,121.924,112.612,0.0926399,0,0,7845.26,3047.81,4.20014
34,380031,2010-12-03 20:08:13,0.000883803,3.40204,31.3338,31.9893,125.652,115.972,0.0949057,0,0,7839.51,3039.28,4.20014
35,391246,2010-12-03 23:15:09,0.000522585,3.36886,32.2634,32.9262,129.382,119.377,0.0940094,0,0,7787.43,3067.24,4.20014
36,402482,2010-12-04 02:22:26,0.000161366,3.36497,33.2006,33.8644,133.134,122.788,0.0938397,0,0,7803.5,3071.9,4.20014
37,413714,2010-12-04 05:29:39,0.000883803,3.36335,34.1386,34.8032,136.89,126.203,0.0932833,0,0,7798.44,3073.51,4.20014
38,424943,2010-12-04 08:36:50,0.000522585,3.36368,35.0772,35.7419,140.647,129.617,0.0939245,0,0,7796.09,3073.34,4.20014
39,436175,2010-12-04 11:44:03,0.000522585,3.36335,36.0157,36.6805,144.404,133.032,0.0930308,0,0,7798.52,3073.01,4.20014
40,447391,2010-12-04 14:51:00,0.000703194,3.36303,36.9538,37.6189,148.159,136.446,0.0923886,0,0,7783.81,3072.35,4.20014
41,458611,2010-12-04 17:58:01,0.000522585,3.36319,37.892,38.5572,151.914,139.86,0.0939245,0,0,7787.63,3071.88,4.20014
42,466883,2010-12-04 20:15:55,0.000883803,3.35089,38.6947,39.3667,155.1,142.779,0.0940094,0,0,5262.45,2650.27,4.20014
43,478152,2010-12-04 23:23:45,0.000703194,3.36222,39.6386,40.3045,158.877,146.192,0.0953716,0,0,7838.63,3069.93,4.20014
44,489355,2010-12-05 02:30:29,0.000341975,3.36238,40.5767,41.2424,162.631,149.606,0.0947342,0,0,7772.12,3070.57,4.20014
45,497626,2010-12-05 04:48:21,0.000703194,3.35202,41.3794,42.0515,165.816,152.524,0.0953716,0,0,5262.08,2648.97,4.20014
46,508890,2010-12-05 07:56:07,0.000522585,3.36206,42.3224,42.9885,169.59,155.935,0.0939245,0,0,7836.61,3067.7,4.20014
47,520083,2010-12-05 11:02:41,0.000703194,3.3627,43.2597,43.9253,173.34,159.346,0.0946487,0,0,7766.34,3066.68,4.20014
48,531269,2010-12-05 14:09:08,0.000522585,3.36351,44.1963,44.8617,177.088,162.755,0.0947342,0,0,7759.83,3065.71,4.20014
49,542448,2010-12-05 17:15:28,0.000522585,3.36643,45.1319,45.7968,180.832,166.157,0.0931148,0,0,7757.53,3061.04,4.20014
50,553628,2010-12-05 20:21:50,0.000703194,3.36691,46.0666,46.7314,184.573,169.558,0.0923886,0,0,7760.82,3059.72,4.20014