File: battery-analytics-lab/data/raw/calce/CS2_35_1_24_11_Statistics_1-008.csv
Cycle_Index,Test_Time(s),Date_Time,Current(A),Voltage(V),Charge_Capacity(Ah),Discharge_Capacity(Ah),Charge_Energy(Wh),Discharge_Energy(Wh),Internal_Resistance(Ohm),AC_Impedance(Ohm),ACI_Phase_Angle(Deg),Charge_Time(s),DisCharge_Time(s),Vmax_On_Cycle(V)
1,9172.57,2011-01-18 15:50:16,0.000522585,3.54418,0.674669,0.706292,2.75044,2.51916,0.102021,0,0,6499.66,2312.85,4.2003
2,18443.6,2011-01-18 18:24:48,0.000703194,3.55891,1.38406,1.39923,5.62949,4.98216,0.102924,0,0,6641.86,2269.13,4.2003
3,27600,2011-01-18 20:57:26,0.000703194,3.56992,2.07666,2.08295,8.4443,7.40546,0.105974,0,0,6557.33,2238.99,4.2003
4,36702.1,2011-01-18 23:29:09,0.000883803,3.57623,2.76034,2.76088,11.2252,9.80506,0.10526,0,0,6521.99,2220.05,4.2003
5,45754.8,2011-01-19 02:00:03,0.000883803,3.58093,3.43802,3.43409,13.9831,12.1861,0.106166,0,0,6487.98,2204.59,4.2003
6,54779.9,2011-01-19 04:30:30,0.000703194,3.584,4.11101,4.10455,16.723,14.5564,0.10607,0,0,6469.48,2195.57,4.2003
7,63778.7,2011-01-19 07:00:30,0.000703194,3.58756,4.78121,4.77134,19.452,16.9124,0.106166,0,0,6455.17,2183.57,4.2003
8,72754.2,2011-01-19 09:30:06,0.000703194,3.58886,5.44782,5.43726,22.167,19.2659,0.105974,0,0,6434.64,2180.7,4.2003
9,81709.2,2011-01-19 11:59:23,0.000883803,3.58692,6.11419,6.10394,24.8808,21.6242,0.104451,0,0,6411.77,2183.15,4.20014
10,90591.7,2011-01-19 14:27:26,0.000703194,3.58643,6.78204,6.77183,27.5987,23.9894,0.106166,0,0,6335.35,2187.11,4.2003
11,99513.9,2011-01-19 16:56:10,0.000883803,3.59469,7.44866,7.43217,30.3129,26.3231,0.105355,0,0,6399.69,2162.4,4.2003
12,108370,2011-01-19 19:23:47,0.000522585,3.601,8.10814,8.08641,32.9996,28.631,0.10526,0,0,6353.89,2142.45,4.2003
13,117206,2011-01-19 21:51:04,0.000883803,3.60618,8.76185,8.73515,35.6644,30.9172,0.107592,0,0,6350.72,2124.51,4.20014
14,126022,2011-01-20 00:18:02,0.000341975,3.61152,9.40962,9.37821,38.307,33.1792,0.107592,0,0,6350.92,2105.87,4.2003
15,134804,2011-01-20 02:44:25,0.000883803,3.61508,10.0521,10.017,40.9292,35.4237,0.106976,0,0,6329.35,2091.9,4.2003
16,143558,2011-01-20 05:10:20,0.000341975,3.61654,10.6905,10.6532,43.5356,37.6584,0.109821,0,0,6310.41,2083.62,4.2003
17,152291,2011-01-20 07:35:55,0.000883803,3.61832,11.3265,11.287,46.1325,39.8834,0.108597,0,0,6297.91,2075.48,4.2003
18,161024,2011-01-20 10:01:28,0.000703194,3.61541,11.9603,11.9214,48.7211,42.112,0.106976,0,0,6294.5,2077.71,4.20014
19,169737,2011-01-20 12:26:43,0.000522585,3.61185,12.5955,12.5577,51.3138,44.351,0.107689,0,0,6270.13,2083.43,4.20014
20,178447,2011-01-20 14:51:54,0.000883803,3.61185,13.2321,13.1933,53.9121,46.5883,0.106166,0,0,6268.69,2081.34,4.2003
21,187155,2011-01-20 17:17:03,0.000703194,3.60861,13.8681,13.8308,56.5077,48.8353,0.108499,0,0,6259.7,2087.81,4.20014
22,195830,2011-01-20 19:41:40,0.000883803,3.61816,14.5047,14.4593,59.1044,51.0433,0.10992,0,0,6257.02,2058.14,4.2003
23,204474,2011-01-20 22:05:44,0.000883803,3.62221,15.1326,15.0822,61.6688,53.2293,0.106166,0,0,6243.5,2040.17,4.2003
24,213092,2011-01-21 00:29:24,0.000703194,3.62399,15.7557,15.7032,64.2145,55.4077,0.108499,0,0,6224.16,2033.87,4.2003
25,221689,2011-01-21 02:52:42,0.000703194,3.62496,16.3766,16.3217,66.752,57.5769,0.107787,0,0,6211.41,2025.79,4.2003
26,230273,2011-01-21 05:15:48,0.000883803,3.62544,16.9954,16.9384,69.2807,59.7394,0.108597,0,0,6204.46,2019.43,4.2003
27,238847,2011-01-21 07:38:42,0.000883803,3.62577,17.6121,17.5534,71.8016,61.8955,0.107592,0,0,6199.13,2014.4,4.2003
28,247427,2011-01-21 10:01:44,0.000883803,3.62221,18.2277,18.1705,74.3179,64.0614,0.106976,0,0,6199.46,2020.97,4.2003
29,255987,2011-01-21 12:24:25,0.000883803,3.61994,18.8458,18.7894,76.8431,66.2364,0.108401,0,0,6172.49,2026.7,4.2003
30,264536,2011-01-21 14:46:55,0.000883803,3.62172,19.4648,19.4057,79.3718,68.4017,0.108401,0,0,6170.38,2018.75,4.2003
31,273057,2011-01-21 17:08:58,0.00106441,3.62431,20.0813,20.0187,81.8904,70.5531,0.107787,0,0,6153.6,2007.62,4.2003
32,281557,2011-01-21 19:30:38,0.00106441,3.63079,20.6938,20.6241,84.3937,72.6735,0.10992,0,0,6156.88,1982.59,4.2003
33,290021,2011-01-21 21:51:44,0.000703194,3.63192,21.2991,21.2272,86.8696,74.7843,0.108597,0,0,6129.21,1975.14,4.2003
34,298466,2011-01-22 00:12:30,0.00106441,3.635,21.9021,21.8257,89.3365,76.8774,0.110019,0,0,6124.18,1960.42,4.2003
35,306880,2011-01-22 02:32:45,0.000522585,3.63564,22.5007,22.4222,91.7863,78.9623,0.109309,0,0,6100.35,1953.31,4.2003
36,315280,2011-01-22 04:52:46,0.00106441,3.63678,23.0972,23.0163,94.2278,81.0383,0.111637,0,0,6094.18,1945.92,4.2003
37,323664,2011-01-22 07:12:31,0.000703194,3.6371,23.6916,23.6085,96.6608,83.107,0.109507,0,0,6084.17,1939.59,4.2003
38,332029,2011-01-22 09:31:58,0.000883803,3.63823,24.2839,24.1983,99.0856,85.1664,0.108695,0,0,6073.61,1931.84,4.2003
39,340378,2011-01-22 11:51:08,0.000341975,3.63904,24.8738,24.786,101.501,87.218,0.109309,0,0,6063.8,1924.64,4.2003
40,348709,2011-01-22 14:10:00,0.000703194,3.64018,25.4617,25.3715,103.909,89.2606,0.110019,0,0,6053.71,1917.55,4.2003
41,353083,2011-01-22 15:22:56,0.000883803,3.65976,25.862,25.7943,105.529,90.7173,0.111637,0,0,2629,1385.01,4.20014
42,361745,2011-01-22 17:47:19,0.000883803,3.61848,26.4705,26.3987,108.021,92.8411,0.108499,0,0,6323,1979.14,4.20014
43,370177,2011-01-22 20:07:52,0.000883803,3.61379,27.0773,27.0092,110.5,94.9908,0.10464,0,0,6072.63,1999.26,4.2003
44,378612,2011-01-22 22:28:28,0.00106441,3.61217,27.6887,27.6216,112.995,97.1489,0.108597,0,0,6069.15,2005.44,4.20014
45,387048,2011-01-23 00:49:05,0.000883803,3.6112,28.3017,28.2351,115.497,99.3114,0.10688,0,0,6066.31,2009.2,4.20014
46,395482,2011-01-23 03:09:40,0.000522585,3.61136,28.9156,28.8483,118.001,101.473,0.10688,0,0,6065.96,2008.22,4.20014
47,403912,2011-01-23 05:30:12,0.000522585,3.6112,29.5291,29.4615,120.505,103.634,0.106976,0,0,6062.14,2007.91,4.20014
48,412335,2011-01-23 07:50:36,0.00106441,3.61217,30.1425,30.0742,123.008,105.794,0.10688,0,0,6056.87,2006.3,4.2003
49,420753,2011-01-23 10:10:55,0.000703194,3.61233,30.7555,30.6863,125.509,107.952,0.107689,0,0,6052.84,2004.51,4.20014
50,429147,2011-01-23 12:30:50,0.000883803,3.61346,31.3677,31.2975,128.007,110.106,0.10688,0,0,6033.01,2001.41,4.20014