File: battery-analytics-lab/data/raw/calce/CS2_35_11_23_10_Statistics_1-008.csv
Cycle_Index,Test_Time(s),Date_Time,Current(A),Voltage(V),Charge_Capacity(Ah),Discharge_Capacity(Ah),Charge_Energy(Wh),Discharge_Energy(Wh),Internal_Resistance(Ohm),AC_Impedance(Ohm),ACI_Phase_Angle(Deg),Charge_Time(s),DisCharge_Time(s),Vmax_On_Cycle(V)
1,11421,2010-11-16 14:55:19,0.000161366,3.32757,0.961549,0.99572,3.85485,3.6395,0.0923051,0,0,7800.89,3260.04,4.20014
2,22995.5,2010-11-16 18:08:14,0.000341975,3.33842,1.95908,1.98928,7.83283,7.26945,0.0929469,0,0,7961.68,3252.75,4.20014
3,34553,2010-11-16 21:20:53,0.000522585,3.32498,2.95203,2.98417,11.7945,10.9034,0.0930308,0,0,7940.15,3257.28,4.20014
4,46094.8,2010-11-17 00:33:16,0.000703194,3.30313,3.94844,3.98543,15.766,14.571,0.0914128,0,0,7903.87,3277.83,4.20014
5,57666.9,2010-11-17 03:46:09,0.000883803,3.29779,4.94968,4.98807,19.7543,18.2447,0.0907677,0,0,7929.59,3282.4,4.20014
6,69256.4,2010-11-17 06:59:20,0.000703194,3.33243,5.95054,5.98293,23.7406,21.8781,0.0932833,0,0,7972.28,3257.17,4.20014
7,80834.2,2010-11-17 10:12:19,0.000883803,3.33178,6.94432,6.97637,27.7057,25.5042,0.0931148,0,0,7965.14,3252.57,4.20014
8,92392.8,2010-11-17 13:24:59,0.000522585,3.32677,7.93772,7.97036,31.6689,29.1339,0.0923886,0,0,7944.29,3254.29,4.20014
9,103957,2010-11-17 16:37:44,0.000522585,3.32563,8.93126,8.96381,35.6326,32.7613,0.0939245,0,0,7951.68,3252.56,4.20014
10,115526,2010-11-17 19:50:34,0.000522585,3.33114,9.92383,9.95512,39.593,36.3778,0.0940094,0,0,7962.74,3245.64,4.20014
11,127075,2010-11-17 23:03:04,0.000522585,3.29633,10.9157,10.9527,43.5518,40.0277,0.0930308,0,0,7922.86,3265.99,4.20014
12,138635,2010-11-18 02:15:46,0.000883803,3.29196,11.9134,11.9514,47.5278,43.6834,0.0929469,0,0,7931.21,3269.49,4.20014
13,150180,2010-11-18 05:28:12,0.000341975,3.30977,12.9119,12.947,51.5057,47.3257,0.0954577,0,0,7925.01,3259.24,4.20014
14,161749,2010-11-18 08:41:02,0.000703194,3.33535,13.9049,13.9351,55.4677,50.9274,0.0948198,0,0,7974.45,3235.17,4.20014
15,173296,2010-11-18 11:53:30,0.000703194,3.32482,14.8926,14.9241,59.412,54.5348,0.0946487,0,0,7948.41,3237.87,4.20014
16,184829,2010-11-18 15:05:45,0.000341975,3.32272,15.8814,15.9129,63.3579,58.1428,0.0947342,0,0,7935.98,3237.37,4.20014
17,196390,2010-11-18 18:18:26,0.000703194,3.3525,16.8679,16.8938,67.2968,61.7103,0.0940094,0,0,7988.46,3211.96,4.20014
18,207972,2010-11-18 21:31:30,0.000341975,3.33535,17.8474,17.8755,71.2151,65.2804,0.0940945,0,0,8008,3214.32,4.20014
19,219471,2010-11-19 00:43:10,0.000703194,3.30637,18.8316,18.8648,75.1447,68.8943,0.0946487,0,0,7900.43,3238.74,4.20014
20,230991,2010-11-19 03:55:11,0.000703194,3.30216,19.8211,19.8551,79.0914,72.5143,0.0931148,0,0,7917.04,3242.17,4.20014
21,242533,2010-11-19 07:07:34,0.000161366,3.34716,20.8084,20.8343,83.0291,76.0767,0.0940094,0,0,7976.26,3206.1,4.20014
22,254089,2010-11-19 10:20:12,0.000522585,3.36562,21.7855,21.8076,86.9381,79.6089,0.093199,0,0,8009.61,3186.62,4.20014
23,265620,2010-11-19 13:32:24,0.000522585,3.36659,22.7585,22.7797,90.8328,83.1371,0.0946487,0,0,7987.45,3182.83,4.20014
24,277156,2010-11-19 16:44:41,0.000883803,3.3695,23.7297,23.7497,94.7214,86.6559,0.0932833,0,0,7999.87,3176.51,4.20014
25,288689,2010-11-19 19:56:55,0.000341975,3.37193,24.6991,24.7179,98.603,90.1659,0.0948198,0,0,8002.11,3170.29,4.20014
26,300170,2010-11-19 23:08:18,0.000883803,3.32288,25.6694,25.6968,102.489,93.7345,0.0938397,0,0,7916.64,3205,4.2003
27,311647,2010-11-20 02:19:36,0.000522585,3.31527,26.6492,26.6782,106.402,97.3166,0.0907677,0,0,7903.61,3213.05,4.20014
28,323118,2010-11-20 05:30:48,0.000522585,3.31203,27.6309,27.6605,110.32,100.904,0.0923886,0,0,7894.86,3216.03,4.20014
29,331911,2010-11-20 07:57:22,0.000703194,3.29811,28.4872,28.5217,113.711,104.022,0.0956303,0,0,5613.62,2819.46,4.20014
30,343420,2010-11-20 11:09:12,0.000883803,3.30961,29.4739,29.5041,117.647,107.611,0.0923886,0,0,7932.53,3216.5,4.20014
31,354882,2010-11-20 14:20:15,0.000703194,3.30637,30.457,30.4873,121.569,111.205,0.0925559,0,0,7882.68,3218.95,4.20014
32,366331,2010-11-20 17:31:05,0.000703194,3.30491,31.4406,31.471,125.492,114.802,0.0945634,0,0,7867.85,3220.38,4.20014
33,377773,2010-11-20 20:41:48,0.000161366,3.3041,32.4246,32.4547,129.416,118.399,0.0923051,0,0,7861.42,3220.63,4.20014
34,389210,2010-11-20 23:52:27,0.000341975,3.30604,33.4085,33.4379,133.339,121.995,0.093199,0,0,7858.43,3218.88,4.20014
35,400650,2010-11-21 03:03:07,0.000341975,3.30928,34.3913,34.4197,137.258,125.584,0.0945634,0,0,7865.2,3214.18,4.20014
36,412083,2010-11-21 06:13:42,0.000703194,3.31009,35.373,35.4008,141.174,129.17,0.0938397,0,0,7860.9,3212.24,4.20014
37,423510,2010-11-21 09:24:10,0.00106441,3.31122,36.3542,36.3814,145.088,132.753,0.0931148,0,0,7857.18,3210.33,4.20014
38,434931,2010-11-21 12:34:33,0.000703194,3.31171,37.3347,37.3614,148.999,136.335,0.0931148,0,0,7852.85,3208.14,4.20014
39,446344,2010-11-21 15:44:47,0.00106441,3.31122,38.3148,38.3412,152.909,139.916,0.0924722,0,0,7845.4,3207.66,4.20014
40,457754,2010-11-21 18:54:58,0.000161366,3.31074,39.2947,39.3207,156.817,143.497,0.0931148,0,0,7842.84,3206.97,4.20014
41,469158,2010-11-21 22:05:03,0.000703194,3.3109,40.2743,40.2999,160.725,147.077,0.0924722,0,0,7837.47,3205.8,4.20014
42,480557,2010-11-22 01:15:03,0.000703194,3.31139,41.2537,41.2788,164.631,150.655,0.091661,0,0,7835.4,3204.21,4.20014
43,491955,2010-11-22 04:25:02,0.000161366,3.31171,42.2327,42.2572,168.535,154.232,0.0931148,0,0,7833.56,3203.43,4.20014
44,503411,2010-11-22 07:36:00,0.000703194,3.38035,43.2073,43.218,172.426,157.72,0.0962666,0,0,7950.53,3146.09,4.20014
45,514837,2010-11-22 10:46:26,0.00124502,3.37646,44.1668,44.1768,176.269,161.198,0.0955439,0,0,7925.72,3139.62,4.2003
46,526259,2010-11-22 13:56:49,0.000703194,3.40496,45.1257,45.1291,180.109,164.645,0.0971633,0,0,7943.4,3118.35,4.2003
47,537625,2010-11-22 17:06:17,0.000522585,3.40237,46.0775,46.0804,183.924,168.089,0.0958035,0,0,7891.45,3115.1,4.2003
48,548994,2010-11-22 20:15:46,0.000522585,3.40706,47.0278,47.0292,187.734,171.521,0.0964407,0,0,7901.5,3106.62,4.2003
49,560318,2010-11-22 23:24:33,0.000883803,3.3436,47.9791,47.9925,191.546,175.03,0.0932833,0,0,7810.87,3154.03,4.20014
50,571674,2010-11-23 02:33:49,0.000703194,3.33437,48.9428,48.9586,195.398,178.552,0.0930308,0,0,7832.58,3162.95,4.20014