File: battery-analytics-lab/data/raw/calce/CS2_35_12_23_10_Statistics_1-008.csv
Cycle_Index,Test_Time(s),Date_Time,Current(A),Voltage(V),Charge_Capacity(Ah),Discharge_Capacity(Ah),Charge_Energy(Wh),Discharge_Energy(Wh),Internal_Resistance(Ohm),AC_Impedance(Ohm),ACI_Phase_Angle(Deg),Charge_Time(s),DisCharge_Time(s),Vmax_On_Cycle(V)
1,10792.3,2010-12-20 15:09:33,0.000341975,3.42293,0.880126,0.883818,3.54243,3.20389,0.0962666,0,0,7538.43,2893.85,4.20014
2,21531.7,2010-12-20 18:08:34,0.000522585,3.43555,1.76598,1.76296,7.09741,6.38779,0.0953716,0,0,7500.66,2878.6,4.20014
3,32228,2010-12-20 21:06:51,0.00124502,3.43911,2.64492,2.63974,10.6262,9.5601,0.0946487,0,0,7465.39,2870.88,4.20014
4,42882.3,2010-12-21 00:04:27,0.000703194,3.41888,3.52351,3.52377,14.1512,12.7694,0.093199,0,0,7399.85,2894.39,4.20014
5,53569.1,2010-12-21 03:02:35,0.000703194,3.41855,4.4076,4.40773,17.6958,15.9794,0.0940094,0,0,7432.5,2894.15,4.20014
6,64199.5,2010-12-21 05:59:47,0.000703194,3.44413,5.29112,5.28297,21.2377,19.1507,0.0961798,0,0,7404.83,2865.56,4.2003
7,74828.4,2010-12-21 08:56:57,0.000341975,3.45773,6.16475,6.15104,24.7446,22.2901,0.0977082,0,0,7426.46,2842.35,4.20014
8,85432.9,2010-12-21 11:53:43,0.000703194,3.45546,7.03219,7.01896,28.2294,25.4291,0.0956303,0,0,7402.88,2841.49,4.20014
9,96030.6,2010-12-21 14:50:22,0.000341975,3.45352,7.90009,7.88713,31.7156,28.5701,0.0955439,0,0,7395.28,2842.4,4.20014
10,106617,2010-12-21 17:46:49,0.000703194,3.45903,8.76803,8.75309,35.2012,31.7015,0.0972511,0,0,7390.72,2835.15,4.20014
11,117199,2010-12-21 20:43:13,0.000522585,3.45951,9.63362,9.61832,38.6785,34.8298,0.0986935,0,0,7390.05,2832.65,4.20014
12,127755,2010-12-21 23:39:10,0.000703194,3.42309,10.5008,10.4959,42.1605,38.0164,0.0940094,0,0,7322.56,2872.94,4.20014
13,138369,2010-12-22 02:36:05,0.000703194,3.42131,11.3785,11.3741,45.679,41.2066,0.093199,0,0,7378.99,2875.12,4.20014
14,148952,2010-12-22 05:32:30,0.000703194,3.44284,12.2566,12.2464,49.1988,44.3718,0.0940094,0,0,7367.35,2855.79,4.20014
15,159520,2010-12-22 08:28:39,0.000341975,3.45919,13.1267,13.1112,52.6913,47.5008,0.0949916,0,0,7376.77,2831.26,4.20014
16,170075,2010-12-22 11:24:35,0.000522585,3.46048,13.9908,13.9745,56.1622,50.6234,0.0970756,0,0,7368.21,2826.28,4.20014
17,180607,2010-12-22 14:20:08,0.000703194,3.4532,14.8539,14.8394,59.6287,53.7546,0.0949057,0,0,7340.21,2831.84,4.20014
18,191152,2010-12-22 17:15:54,0.000883803,3.45692,15.7182,15.7023,63.0994,56.8772,0.0964407,0,0,7359.19,2825.26,4.20014
19,201692,2010-12-22 20:11:36,0.000522585,3.45708,16.5806,16.5644,66.5637,59.9967,0.0962666,0,0,7358.18,2822.45,4.20014
20,212216,2010-12-22 23:07:01,0.000522585,3.43037,17.4444,17.4361,70.0327,63.1611,0.0962666,0,0,7310.42,2853.65,4.2003
21,222764,2010-12-23 02:02:50,0.000883803,3.42697,18.3164,18.3095,73.5294,66.3335,0.0947342,0,0,7328.63,2859.17,4.20014
22,233312,2010-12-23 04:58:39,0.000703194,3.42972,19.1897,19.181,77.0307,69.4992,0.0940945,0,0,7334.3,2852.98,4.20014
23,243846,2010-12-23 07:54:14,0.000341975,3.46356,20.0591,20.0383,80.5192,72.6028,0.0958035,0,0,7367.18,2806.85,4.20014
24,254303,2010-12-23 10:48:33,0.000161366,3.46939,20.9154,20.8916,83.9594,75.689,0.0970756,0,0,7302.96,2793.84,4.20014