File: battery-analytics-lab/data/raw/calce/CS2_35_1_18_11_Statistics_1-008.csv
Cycle_Index,Test_Time(s),Date_Time,Current(A),Voltage(V),Charge_Capacity(Ah),Discharge_Capacity(Ah),Charge_Energy(Wh),Discharge_Energy(Wh),Internal_Resistance(Ohm),AC_Impedance(Ohm),ACI_Phase_Angle(Deg),Charge_Time(s),DisCharge_Time(s),Vmax_On_Cycle(V)
1,9725.21,2011-01-10 14:29:25,0.000341975,3.49027,0.749173,0.782815,3.03795,2.81927,0.0995924,0,0,6802.03,2563.12,4.20014
2,19576.3,2011-01-10 17:13:38,0.000703194,3.50662,1.53454,1.5563,6.20729,5.59967,0.0995924,0,0,6958.69,2532.32,4.20014
3,26113.1,2011-01-10 19:02:36,0.000341975,3.5165,2.15715,2.19542,8.69732,7.86847,0.101929,0,0,4084.03,2092.73,4.20014
4,36070.1,2011-01-10 21:48:34,0.00106441,3.53171,2.94415,2.95489,11.8769,10.5896,0.100493,0,0,7110.36,2486.49,4.20014
5,45765.7,2011-01-11 00:30:11,0.000703194,3.53786,3.70477,3.71096,14.953,13.2966,0.100584,0,0,6860.06,2475.56,4.2003
6,55425.2,2011-01-11 03:11:11,0.00106441,3.5424,4.46086,4.46394,18.0118,15.991,0.102021,0,0,6833.84,2465.52,4.20014
7,65061.1,2011-01-11 05:51:49,0.000522585,3.54483,5.21376,5.21495,21.0585,18.6777,0.102021,0,0,6816.98,2458.84,4.20014
8,74676.4,2011-01-11 08:32:05,0.000703194,3.54677,5.96468,5.96451,24.0973,21.3591,0.101212,0,0,6800.94,2454.29,4.20014
9,80987.8,2011-01-11 10:17:18,0.000703194,3.53884,6.5615,6.58631,26.4887,23.5631,0.102831,0,0,3915.27,2036.03,4.20014
10,90843.3,2011-01-11 13:01:34,0.000522585,3.54661,7.33449,7.33496,29.614,26.244,0.101837,0,0,7044.22,2451.24,4.20014
11,100438,2011-01-11 15:41:30,0.000703194,3.54774,8.08484,8.08214,32.6499,28.9199,0.100493,0,0,6788.07,2446.42,4.20014
12,109975,2011-01-11 18:20:28,0.000522585,3.55502,8.8322,8.82399,35.6733,31.575,0.102114,0,0,6747.62,2428.99,4.20014
13,119472,2011-01-11 20:58:47,0.000522585,3.56085,9.57352,9.56187,38.6744,34.2128,0.102114,0,0,6721.5,2416.04,4.20014
14,128955,2011-01-11 23:36:51,0.000883803,3.56344,10.3113,10.2969,41.662,36.8392,0.101395,0,0,6715.77,2406.88,4.2003
15,138411,2011-01-12 02:14:28,0.000883803,3.56441,11.0463,11.0299,44.6394,39.458,0.101395,0,0,6695.8,2400.04,4.2003
16,147853,2011-01-12 04:51:51,0.00106441,3.56522,11.7795,11.7614,47.6092,42.0711,0.103735,0,0,6686.68,2395.2,4.20014
17,153944,2011-01-12 06:33:24,0.000703194,3.57089,12.3555,12.3578,49.9193,44.1777,0.102206,0,0,3778.25,1953.08,4.20014
18,163606,2011-01-12 09:14:27,0.000703194,3.56636,13.1054,13.0855,52.9572,46.7763,0.103017,0,0,6919.22,2382.7,4.2003
19,173044,2011-01-12 11:51:45,0.000703194,3.55648,13.8352,13.819,55.9139,49.4004,0.100584,0,0,6675.36,2401.93,4.20014
20,182316,2011-01-12 14:26:19,0.000703194,3.54952,14.5716,14.5584,58.8927,52.0517,0.10112,0,0,6491.1,2421.14,4.20014
21,191766,2011-01-12 17:03:51,0.000522585,3.56538,15.3073,15.2847,61.8714,54.6443,0.102738,0,0,6712.5,2378.02,4.20014
22,201146,2011-01-12 19:40:12,0.000703194,3.56959,16.0327,16.0064,64.8112,57.2177,0.101303,0,0,6656.81,2363.1,4.20014
23,210517,2011-01-12 22:16:23,0.000161366,3.57251,16.7537,16.7243,67.735,59.7758,0.101303,0,0,6659.15,2350.9,4.20014
24,219875,2011-01-13 00:52:23,0.000883803,3.57429,17.4714,17.4395,70.6465,62.323,0.102924,0,0,6656.09,2342.04,4.20014
25,229215,2011-01-13 03:28:04,0.000703194,3.57607,18.1864,18.1523,73.5474,64.86,0.103641,0,0,6646.37,2333.82,4.20014
26,238535,2011-01-13 06:03:26,0.000703194,3.57785,18.8988,18.8626,76.4386,67.3876,0.103454,0,0,6633.92,2326.16,4.2003
27,244339,2011-01-13 07:40:11,0.000522585,3.58918,19.4454,19.4296,78.6346,69.3808,0.105165,0,0,3587.03,1856.44,4.20014
28,253899,2011-01-13 10:19:32,0.000703194,3.57753,20.1734,20.1364,81.59,71.8947,0.102114,0,0,6885.93,2314.62,4.2003
29,263204,2011-01-13 12:54:38,0.000522585,3.57591,20.8828,20.8444,84.4691,74.4155,0.102924,0,0,6626.19,2318.43,4.20014
30,272495,2011-01-13 15:29:30,0.000883803,3.57251,21.5911,21.5536,87.3439,76.941,0.101929,0,0,6608.64,2321.95,4.2003
31,281767,2011-01-13 18:04:04,0.000703194,3.57542,22.3004,22.2602,90.222,79.4574,0.102114,0,0,6598.36,2313.81,4.20014
32,291027,2011-01-13 20:38:25,0.000703194,3.58012,23.0063,22.9623,93.0876,81.9535,0.103641,0,0,6601.3,2298.85,4.20014
33,300259,2011-01-13 23:12:18,0.000703194,3.58222,23.708,23.6616,95.9373,84.4384,0.103017,0,0,6581.78,2289.93,4.20014
34,309448,2011-01-14 01:45:28,0.000883803,3.5908,24.4064,24.3536,98.7741,86.8924,0.104451,0,0,6562.72,2266.18,4.2003
35,318625,2011-01-14 04:18:27,0.000883803,3.59242,25.0976,25.0421,101.585,89.3323,0.103735,0,0,6562.31,2254.82,4.2003
36,327787,2011-01-14 06:51:10,0.000341975,3.59388,25.7858,25.7282,104.384,91.7616,0.104356,0,0,6555.89,2246.49,4.2003
37,336935,2011-01-14 09:23:39,0.000703194,3.59226,26.4717,26.4136,107.173,94.1893,0.104356,0,0,6542.79,2244.64,4.2003
38,346074,2011-01-14 11:55:59,0.000703194,3.58902,27.1578,27.1004,109.964,96.6237,0.103641,0,0,6529.86,2249.01,4.2003
39,351617,2011-01-14 13:28:24,0.000703194,3.601,27.6773,27.6421,112.054,98.5219,0.105355,0,0,3409.88,1773.67,4.20014
40,361026,2011-01-14 16:05:14,0.00106441,3.58708,28.384,28.3268,114.927,100.95,0.104451,0,0,6806.38,2242.34,4.2003
41,370163,2011-01-14 18:37:32,0.000703194,3.58983,29.0702,29.0095,117.718,103.369,0.104356,0,0,6541.36,2235.59,4.2003
42,379275,2011-01-14 21:09:26,0.000703194,3.59323,29.7527,29.6888,120.494,105.774,0.104451,0,0,6527.3,2224.51,4.2003
43,388361,2011-01-14 23:40:53,0.000883803,3.59388,30.4318,30.3666,123.257,108.173,0.104451,0,0,6506.61,2219.54,4.2003
44,397439,2011-01-15 02:12:12,0.000703194,3.59533,31.1097,31.0424,126.016,110.564,0.103641,0,0,6504.76,2213.07,4.2003
45,406509,2011-01-15 04:43:23,0.000703194,3.59566,31.7855,31.717,128.766,112.95,0.10607,0,0,6500.22,2209.03,4.20014
46,415564,2011-01-15 07:14:19,0.000703194,3.59582,32.4599,32.3903,131.512,115.331,0.103828,0,0,6490.33,2205.03,4.2003
47,424615,2011-01-15 09:45:11,0.000883803,3.59647,33.1333,33.0622,134.253,117.706,0.105355,0,0,6490.55,2200.2,4.2003
48,433661,2011-01-15 12:15:59,0.000703194,3.59307,33.8054,33.7354,136.989,120.089,0.104451,0,0,6481.17,2204.73,4.2003
49,442699,2011-01-15 14:46:38,0.000703194,3.59242,34.4793,34.4087,139.732,122.472,0.103735,0,0,6473.47,2204.98,4.2003
50,451736,2011-01-15 17:17:16,0.000161366,3.59015,35.1529,35.0829,142.473,124.859,0.105165,0,0,6468.62,2207.54,4.2003