File: battery-analytics-lab/data/raw/calce/CS2_35_11_01_10_Statistics_1-008.csv
Cycle_Index,Test_Time(s),Date_Time,Current(A),Voltage(V),Charge_Capacity(Ah),Discharge_Capacity(Ah),Charge_Energy(Wh),Discharge_Energy(Wh),Internal_Resistance(Ohm),AC_Impedance(Ohm),ACI_Phase_Angle(Deg),Charge_Time(s),DisCharge_Time(s),Vmax_On_Cycle(V)
1,11574.8,2010-10-29 13:10:29,0.00106441,3.3776,0.963638,0.970339,3.87036,3.51987,0.0923886,0,0,8037.09,3177.57,4.20014
2,23133.8,2010-10-29 16:23:10,0.000703194,3.3763,1.93442,1.93959,7.75874,7.03527,0.093199,0,0,8025.01,3173.95,4.20014
3,34685.8,2010-10-29 19:35:43,0.000883803,3.37873,2.90295,2.90671,11.6385,10.5407,0.0930308,0,0,8025.14,3166.81,4.20014
4,46178.6,2010-10-29 22:47:17,0.000883803,3.34036,3.87189,3.88259,15.5189,14.0928,0.0937551,0,0,7937.25,3195.43,4.20014
5,57700.2,2010-10-30 01:59:20,0.000883803,3.33502,4.8483,4.86004,19.4225,17.6534,0.0937551,0,0,7961.29,3200.28,4.20014
6,69215.7,2010-10-30 05:11:17,0.000703194,3.33146,5.82585,5.8382,23.3294,21.218,0.0915781,0,0,7952.71,3202.73,4.20014
7,80727.4,2010-10-30 08:23:10,0.000522585,3.32936,6.80402,6.81676,27.238,24.785,0.0923886,0,0,7947.55,3204,4.20014
8,92236.1,2010-10-30 11:35:00,0.000703194,3.32822,7.7825,7.7955,31.1474,28.3532,0.0920556,0,0,7944.1,3204.59,4.20014
9,103747,2010-10-30 14:46:52,0.000703194,3.32596,8.76123,8.77465,35.0574,31.9236,0.0930308,0,0,7944.77,3205.92,4.20014