File: battery-analytics-lab/data/raw/calce/CS2_35_10_29_10_Statistics_1-008.csv
Cycle_Index,Test_Time(s),Date_Time,Current(A),Voltage(V),Charge_Capacity(Ah),Discharge_Capacity(Ah),Charge_Energy(Wh),Discharge_Energy(Wh),Internal_Resistance(Ohm),AC_Impedance(Ohm),ACI_Phase_Angle(Deg),Charge_Time(s),DisCharge_Time(s),Vmax_On_Cycle(V)
1,11598.4,2010-10-22 16:36:44,0.000883803,3.38925,0.971346,0.976537,3.8987,3.54303,0.093199,0,0,8040.45,3197.85,4.20014
2,23211.6,2010-10-22 19:50:19,0.000703194,3.38666,1.94768,1.95186,7.80934,7.08121,0.0939245,0,0,8059.24,3193.82,4.20014
3,34759.4,2010-10-22 23:02:48,0.000703194,3.34732,2.92497,2.93664,11.7207,10.6688,0.0923886,0,0,7963.27,3224.53,4.20014
4,46333.8,2010-10-23 02:15:43,0.000703194,3.34198,3.91,3.92277,15.6572,14.2639,0.0930308,0,0,7985.32,3228.94,4.20014
5,57904.5,2010-10-23 05:28:36,0.000703194,3.34117,4.89617,4.90911,19.5972,17.8605,0.0915781,0,0,7981.27,3229.4,4.20014
6,69470.3,2010-10-23 08:41:22,0.000522585,3.34036,5.88246,5.89553,23.5373,21.4579,0.0907677,0,0,7976.13,3229.55,4.20014
7,81028.9,2010-10-23 11:54:02,0.000703194,3.33939,6.86877,6.88205,27.477,25.0563,0.0930308,0,0,7968.51,3230.08,4.20014
8,92581.1,2010-10-23 15:06:36,0.000522585,3.33162,7.85551,7.87044,31.4176,28.6646,0.0907677,0,0,7955.93,3236.17,4.20014
9,104128,2010-10-23 18:19:04,0.000703194,3.32919,8.84374,8.85924,35.3629,32.2754,0.0914954,0,0,7949.76,3237.5,4.20014
10,115673,2010-10-23 21:31:30,0.000341975,3.32741,9.83248,9.84838,39.3095,35.888,0.0900387,0,0,7946.15,3238.53,4.20014
11,127219,2010-10-24 00:43:58,0.000703194,3.32725,10.8216,10.8377,43.2571,39.5019,0.0906857,0,0,7946.9,3239.11,4.20014
12,138764,2010-10-24 03:56:24,0.000703194,3.32628,11.8107,11.8272,47.2049,43.1166,0.0914954,0,0,7945.43,3239.64,4.2003
13,150302,2010-10-24 07:08:43,0.000341975,3.32531,12.8,12.8168,51.1526,46.7322,0.0914954,0,0,7937.92,3239.97,4.20014
14,161835,2010-10-24 10:20:57,0.000703194,3.32466,13.7894,13.8064,55.1005,50.3483,0.0906857,0,0,7932.62,3240.11,4.20014
15,173371,2010-10-24 13:33:14,0.000883803,3.32369,14.7789,14.7962,59.0488,53.9656,0.0914954,0,0,7934.64,3240.77,4.20014
16,184899,2010-10-24 16:45:23,0.000522585,3.32191,15.7684,15.7863,62.9967,57.5842,0.0900387,0,0,7926.55,3241.25,4.20014
17,196419,2010-10-24 19:57:25,0.000341975,3.31997,16.7584,16.7768,66.9459,61.2054,0.0914128,0,0,7918.08,3242.69,4.20014
18,207945,2010-10-24 23:09:32,0.000522585,3.3211,17.7486,17.767,70.8958,64.8252,0.0914128,0,0,7923.77,3241.74,4.20014
19,219464,2010-10-25 02:21:33,0.000161366,3.32029,18.7385,18.7573,74.8444,68.4451,0.0922218,0,0,7917.64,3241.78,4.20014
20,230923,2010-10-25 05:32:32,0.000341975,3.36691,19.7262,19.7354,78.7837,72.0031,0.0923886,0,0,7895.69,3202.46,4.20014
21,242452,2010-10-25 08:44:43,0.000522585,3.3797,20.7026,20.7084,82.6899,75.5358,0.0923051,0,0,7983.5,3185.71,4.20014
22,253959,2010-10-25 11:56:31,0.000522585,3.37404,21.6752,21.6817,86.5832,79.0706,0.0944782,0,0,7959.78,3187.03,4.20014
23,265472,2010-10-25 15:08:25,0.000341975,3.37306,22.6483,22.6548,90.4781,82.6046,0.0952857,0,0,7967.12,3186.12,4.20014
24,276975,2010-10-25 18:20:09,0.000341975,3.37824,23.6207,23.626,94.3705,86.129,0.0940094,0,0,7962.56,3179.87,4.20014
25,288542,2010-10-25 21:32:58,0.000341975,3.34214,24.5926,24.6052,98.2632,89.6953,0.0923051,0,0,8001.11,3206.03,4.20014
26,300055,2010-10-26 00:44:52,0.000522585,3.33356,25.5731,25.5879,102.181,93.28,0.0922218,0,0,7935.38,3217.52,4.20014
27,308831,2010-10-26 03:11:10,0.000522585,3.32337,26.4273,26.448,105.566,96.3899,0.0915781,0,0,5600.75,2815.69,4.20014
28,320430,2010-10-26 06:24:29,0.000161366,3.37128,27.4129,27.4207,109.502,99.924,0.0931148,0,0,8052.91,3185.15,4.20014
29,331965,2010-10-26 09:36:46,0.000522585,3.37582,28.3851,28.3914,113.395,103.447,0.0915781,0,0,7997.45,3178.2,4.20014
30,343472,2010-10-26 12:48:34,0.000883803,3.37177,29.356,29.363,117.282,106.976,0.0931148,0,0,7964.86,3181.71,4.2003
31,354987,2010-10-26 16:00:30,0.000341975,3.38164,30.327,30.3321,121.17,110.492,0.0939245,0,0,7981.14,3173.45,4.20014
32,366492,2010-10-26 19:12:16,0.000703194,3.38828,31.295,31.2987,125.046,113.995,0.0933678,0,0,7979.87,3164.98,4.2003
33,377971,2010-10-26 22:23:36,0.000341975,3.33437,32.2632,32.278,128.924,117.564,0.0923051,0,0,7912.42,3206.59,4.20014
34,389481,2010-10-27 01:35:28,0.000522585,3.32725,33.243,33.26,132.838,121.147,0.0915781,0,0,7934.99,3215.19,4.20014
35,400962,2010-10-27 04:46:50,0.000703194,3.36189,34.2249,34.2356,136.759,124.699,0.0931148,0,0,7926.29,3194.62,4.20014
36,412472,2010-10-27 07:58:42,0.000522585,3.38359,35.1971,35.2032,140.649,128.208,0.0939245,0,0,7981.94,3168.43,4.20014
37,423957,2010-10-27 11:10:08,0.000883803,3.3763,36.1644,36.1719,144.522,131.724,0.0924722,0,0,7952.45,3172.06,4.20014
38,435454,2010-10-27 14:21:46,0.000522585,3.36983,37.1327,37.1417,148.399,135.245,0.0945634,0,0,7961.34,3175.31,4.20014
39,446965,2010-10-27 17:33:39,0.000341975,3.37064,38.102,38.1106,152.28,138.762,0.0939245,0,0,7979.03,3172.62,4.20014
40,458491,2010-10-27 20:45:46,0.000883803,3.34231,39.0707,39.0845,156.158,142.305,0.0923886,0,0,7976.62,3189.37,4.2003
41,469992,2010-10-27 23:57:28,0.000703194,3.32466,40.0476,40.065,160.061,145.882,0.0931148,0,0,7930.4,3210.45,4.20014
42,481500,2010-10-28 03:09:18,0.000703194,3.32061,41.0287,41.0468,163.979,149.467,0.0914954,0,0,7933.15,3214.96,4.20014
43,493036,2010-10-28 06:21:35,0.000883803,3.36627,42.0086,42.0176,167.892,152.995,0.0924722,0,0,7996.52,3179.08,4.20014
44,504548,2010-10-28 09:33:29,0.00106441,3.37128,42.9788,42.9858,171.777,156.51,0.0923886,0,0,7981.3,3170.76,4.20014
45,516048,2010-10-28 12:45:10,0.000703194,3.36659,43.9472,43.9544,175.654,160.027,0.0939245,0,0,7967.44,3172.07,4.20014
46,527554,2010-10-28 15:56:57,0.000522585,3.36869,44.9157,44.9222,179.531,163.54,0.0945634,0,0,7977,3169.06,4.20014
47,539057,2010-10-28 19:08:41,0.000703194,3.37177,45.8827,45.8884,183.403,167.045,0.0939245,0,0,7978.4,3164.09,4.20014
48,550534,2010-10-28 22:20:00,0.000341975,3.35202,46.8506,46.8606,187.28,170.585,0.0930308,0,0,7934.13,3183.41,4.20014
49,562072,2010-10-29 01:32:18,0.000522585,3.37517,47.8204,47.8254,191.163,174.083,0.0923886,0,0,8017.75,3159.36,4.20014
50,573586,2010-10-29 04:44:14,0.000883803,3.37695,48.7847,48.7891,195.026,177.577,0.0939245,0,0,7998.26,3155.79,4.20014