File: battery-analytics-lab/data/raw/calce/CS2_35_11_24_10_Statistics_1-008.csv
Cycle_Index,Test_Time(s),Date_Time,Current(A),Voltage(V),Charge_Capacity(Ah),Discharge_Capacity(Ah),Charge_Energy(Wh),Discharge_Energy(Wh),Internal_Resistance(Ohm),AC_Impedance(Ohm),ACI_Phase_Angle(Deg),Charge_Time(s),DisCharge_Time(s),Vmax_On_Cycle(V)
1,11595.8,2010-11-23 15:38:12,0.000703194,3.39103,0.961728,0.959269,3.8639,3.47647,0.0947342,0,0,8094.68,3141.02,4.2003
2,23061.4,2010-11-23 18:49:19,0.000703194,3.39961,1.92199,1.91532,7.71208,6.9394,0.0956303,0,0,7975.28,3130.29,4.20014
3,34560.8,2010-11-23 22:01:00,0.000522585,3.3661,2.87706,2.87618,11.5421,10.4289,0.0947342,0,0,7993.17,3146.1,4.2003
4,45955.8,2010-11-24 01:10:56,0.000883803,3.34943,3.84027,3.84249,15.3954,13.9481,0.0938397,0,0,7871.16,3163.74,4.20014
5,57352.3,2010-11-24 04:20:54,0.000522585,3.34587,4.8068,4.80946,19.259,17.4717,0.0925559,0,0,7870.67,3165.83,4.2003
6,68794.3,2010-11-24 07:31:37,0.000341975,3.39638,5.77024,5.76211,23.1115,20.9242,0.0956303,0,0,7962.71,3119.2,4.20014
7,80209.2,2010-11-24 10:41:53,0.000522585,3.40836,6.72133,6.70964,26.9258,24.3516,0.0963536,0,0,7952.06,3102.7,4.2003
8,91595.9,2010-11-24 13:51:41,0.000341975,3.40933,7.66816,7.65538,30.7239,27.7726,0.0964407,0,0,7930.01,3096.63,4.20014