File: battery-analytics-lab/data/raw/calce/CS2_35_11_08_10_Statistics_1-008.csv
Cycle_Index,Test_Time(s),Date_Time,Current(A),Voltage(V),Charge_Capacity(Ah),Discharge_Capacity(Ah),Charge_Energy(Wh),Discharge_Energy(Wh),Internal_Resistance(Ohm),AC_Impedance(Ohm),ACI_Phase_Angle(Deg),Charge_Time(s),DisCharge_Time(s),Vmax_On_Cycle(V)
1,11150.7,2010-11-01 17:29:20,0.000883803,3.35979,0.92346,0.980763,3.71049,3.57299,0.0922218,0,0,7579.41,3211.26,4.20014
2,22658.4,2010-11-01 20:41:09,0.000341975,3.33599,1.90566,1.96608,7.63553,7.16706,0.089876,0,0,7921.45,3226.1,4.20014
3,34166.4,2010-11-01 23:52:58,0.000341975,3.3279,2.89206,2.9543,11.5739,10.7758,0.0914128,0,0,7912.37,3235.57,4.20014
4,45693.2,2010-11-02 03:05:06,0.000883803,3.3245,3.88047,3.94346,15.5192,14.388,0.0914128,0,0,7928.32,3238.42,4.20014
5,57246.8,2010-11-02 06:17:41,0.000341975,3.36578,4.86798,4.9235,19.4615,17.9528,0.0940094,0,0,7984.71,3208.81,4.20014
6,68770.7,2010-11-02 09:29:46,0.000703194,3.36011,5.84784,5.90349,23.3803,21.5167,0.0939245,0,0,7955.12,3208.66,4.20014
7,80296.2,2010-11-02 12:41:53,0.000703194,3.34279,6.82819,6.88639,27.2996,25.0962,0.093199,0,0,7947.08,3218.35,4.20014
8,91818.7,2010-11-02 15:53:57,0.000703194,3.33308,7.81156,7.87134,31.2283,28.6871,0.0938397,0,0,7937.77,3224.68,4.20014
9,103331,2010-11-02 19:05:50,0.000341975,3.33243,8.79646,8.85611,35.1611,32.277,0.0924722,0,0,7928.13,3224.31,4.20014
10,114834,2010-11-02 22:17:34,0.000522585,3.30815,9.78162,9.8453,39.0948,35.89,0.0923051,0,0,7904.1,3238.69,4.20014
11,126356,2010-11-03 01:29:37,0.000703194,3.30426,10.7709,10.8353,43.0414,39.5074,0.0922218,0,0,7920.42,3241.34,4.20014
12,137859,2010-11-03 04:41:21,0.000703194,3.33308,11.7608,11.8205,46.9901,43.1011,0.0939245,0,0,7917.15,3225.48,4.20014
13,149381,2010-11-03 07:53:25,0.000703194,3.33939,12.744,12.802,50.9181,46.675,0.093199,0,0,7949.08,3213.63,4.20014
14,160897,2010-11-03 11:05:22,0.000522585,3.33454,13.725,13.7833,54.8385,50.2478,0.0939245,0,0,7942.52,3213.06,4.20014
15,172393,2010-11-03 14:16:59,0.000522585,3.32207,14.7069,14.7672,58.7603,53.8354,0.0946487,0,0,7913.94,3221.55,4.20014
16,183907,2010-11-03 17:28:54,0.000883803,3.32175,15.6907,15.751,62.6886,57.4226,0.0939245,0,0,7932.99,3221,4.20014
17,195429,2010-11-03 20:40:57,0.000161366,3.3088,16.674,16.7363,66.6156,61.0166,0.0938397,0,0,7935.72,3226.03,4.20014
18,206941,2010-11-03 23:52:51,0.000341975,3.3007,17.66,17.724,70.5506,64.6241,0.0931148,0,0,7918.67,3233.5,4.20014
19,218453,2010-11-04 03:04:44,0.000522585,3.29908,18.6475,18.712,74.4903,68.2336,0.0923886,0,0,7917.83,3234.59,4.20014
20,229990,2010-11-04 06:17:02,0.000703194,3.33713,19.6338,19.6917,78.4253,71.8001,0.0954577,0,0,7969.2,3207.62,4.20014
21,241500,2010-11-04 09:28:54,0.000522585,3.33421,20.6132,20.6712,82.3399,75.3663,0.0948198,0,0,7942.77,3207.18,4.20014
22,252994,2010-11-04 12:40:29,0.000883803,3.33389,21.5925,21.6503,86.2529,78.9307,0.0948198,0,0,7928.57,3205.64,4.20014
23,264495,2010-11-04 15:52:11,0.000883803,3.33664,22.5713,22.6283,90.1643,82.4906,0.0955439,0,0,7938.03,3202.31,4.20014
24,275989,2010-11-04 19:03:46,0.000161366,3.34328,23.5487,23.6044,94.0705,86.0403,0.0961798,0,0,7938.36,3195.87,4.20014
25,287474,2010-11-04 22:15:12,0.000522585,3.30912,24.5255,24.587,97.9758,89.6249,0.0944782,0,0,7907.58,3217.05,4.20014
26,298973,2010-11-05 01:26:53,0.000522585,3.30443,25.5084,25.571,101.899,93.2171,0.0932833,0,0,7917.67,3221.84,4.20014
27,310452,2010-11-05 04:38:12,0.000161366,3.33033,26.4924,26.5508,105.826,96.789,0.0954577,0,0,7910.38,3207.86,4.20014
28,321956,2010-11-05 07:49:57,0.000703194,3.34182,27.4702,27.5262,109.734,100.336,0.0962666,0,0,7949.94,3193.7,4.20014
29,333441,2010-11-05 11:01:24,0.000883803,3.33535,28.4456,28.5025,113.633,103.89,0.0955439,0,0,7928.78,3196.43,4.20014
30,344922,2010-11-05 14:12:47,0.000522585,3.32984,29.422,29.4797,117.535,107.448,0.0939245,0,0,7922.07,3199.51,4.20014
31,356403,2010-11-05 17:24:08,0.000341975,3.3211,30.3993,30.4585,121.44,111.015,0.0947342,0,0,7915.47,3204.75,4.20014
32,367910,2010-11-05 20:35:57,0.000883803,3.31203,31.3773,31.4381,125.347,114.585,0.0940094,0,0,7939.86,3207.43,4.20014
33,379389,2010-11-05 23:47:17,0.000341975,3.30038,32.3581,32.4212,129.262,118.176,0.0939245,0,0,7900.12,3218.59,4.20014
34,390874,2010-11-06 02:58:43,0.000522585,3.29892,33.3412,33.4049,133.185,121.769,0.093199,0,0,7904.59,3220.42,4.20014
35,402350,2010-11-06 06:10:00,0.000341975,3.29746,34.3248,34.3889,137.109,125.364,0.0923051,0,0,7894.38,3221.47,4.20014
36,413829,2010-11-06 09:21:21,0.000522585,3.29763,35.3087,35.3731,141.034,128.96,0.0939245,0,0,7897.22,3221.95,4.20014
37,425306,2010-11-06 12:32:38,0.000703194,3.29763,36.2926,36.3572,144.958,132.557,0.093199,0,0,7894.68,3221.86,4.20014
38,436784,2010-11-06 15:43:57,0.000522585,3.29309,37.2768,37.3424,148.884,136.158,0.0931148,0,0,7892.43,3225.25,4.20014
39,448257,2010-11-06 18:55:12,0.000161366,3.29212,38.262,38.3279,152.812,139.762,0.0939245,0,0,7886.71,3226.44,4.20014
40,459727,2010-11-06 22:06:23,0.000703194,3.2918,39.2474,39.3136,156.741,143.367,0.091661,0,0,7883.01,3226.94,4.2003
41,471193,2010-11-07 01:17:30,0.000522585,3.29147,40.2329,40.2993,160.67,146.972,0.091744,0,0,7878.64,3226.93,4.20014
42,482655,2010-11-07 04:28:34,0.000341975,3.29147,41.2183,41.285,164.598,150.577,0.0940094,0,0,7875.82,3226.83,4.20014
43,494105,2010-11-07 07:39:24,0.000341975,3.29147,42.2036,42.2703,168.526,154.182,0.093199,0,0,7863.5,3225.88,4.20014
44,505565,2010-11-07 10:50:25,0.000703194,3.2918,43.1889,43.2558,172.454,157.786,0.0938397,0,0,7873.57,3226.22,4.20014
45,517023,2010-11-07 14:01:25,0.000883803,3.29212,44.1741,44.2411,176.381,161.39,0.0924722,0,0,7873.03,3225.38,4.20014
46,528480,2010-11-07 17:12:23,0.000703194,3.29164,45.1592,45.2264,180.308,164.994,0.0938397,0,0,7870.67,3225.69,4.20014
47,539933,2010-11-07 20:23:17,0.000703194,3.29131,46.1443,46.2118,184.235,168.599,0.0939245,0,0,7867.12,3225.74,4.20014
48,551385,2010-11-07 23:34:10,0.000883803,3.29131,47.1294,47.1971,188.162,172.204,0.0931148,0,0,7866.81,3225.58,4.20014
49,562834,2010-11-08 02:45:00,0.000703194,3.29196,48.1143,48.1821,192.088,175.807,0.0931148,0,0,7864.14,3224.57,4.20014
50,574283,2010-11-08 05:55:51,0.000341975,3.32288,49.0971,49.1594,196.005,179.371,0.0947342,0,0,7889.29,3200.03,4.20014