File: battery-analytics-lab/data/raw/calce/CS2_35_12_20_10_Statistics_1-008.csv
Cycle_Index,Test_Time(s),Date_Time,Current(A),Voltage(V),Charge_Capacity(Ah),Discharge_Capacity(Ah),Charge_Energy(Wh),Discharge_Energy(Wh),Internal_Resistance(Ohm),AC_Impedance(Ohm),ACI_Phase_Angle(Deg),Charge_Time(s),DisCharge_Time(s),Vmax_On_Cycle(V)
1,11145.1,2010-12-13 15:42:09,0.00106441,3.43215,0.899198,0.895169,3.62673,3.23062,0.0954577,0,0,7853.54,2931.53,4.2003
2,22156.9,2010-12-13 18:45:42,0.00106441,3.44591,1.7965,1.78612,7.23484,6.44328,0.0949057,0,0,7733.96,2917.72,4.2003
3,33135.9,2010-12-13 21:48:43,0.000883803,3.43393,2.68682,2.67843,10.8164,9.6642,0.0956303,0,0,7697.06,2921.86,4.2003
4,44089.1,2010-12-14 00:51:17,0.000883803,3.42131,3.583,3.57689,14.4164,12.9166,0.0940094,0,0,7651.11,2941.99,4.20014
5,55043.6,2010-12-14 03:53:53,0.000883803,3.41855,4.48208,4.47605,18.0258,16.1732,0.0962666,0,0,7650.24,2944.23,4.20014
6,65994.5,2010-12-14 06:56:25,0.000703194,3.44251,5.37927,5.36641,21.6266,19.3878,0.0962666,0,0,7675.19,2915.63,4.2003
7,76939.5,2010-12-14 09:58:51,0.000883803,3.44543,6.26907,6.25452,25.2041,22.5934,0.0964407,0,0,7676.7,2908.27,4.2003
8,87862.1,2010-12-14 13:00:55,0.000883803,3.44591,7.15755,7.14196,28.7762,25.7966,0.0972511,0,0,7656.64,2905.89,4.2003
9,98783.3,2010-12-14 16:02:58,0.00106441,3.44154,8.0456,8.0304,32.3461,29.006,0.0977082,0,0,7651.95,2909.14,4.20014
10,109703,2010-12-14 19:04:58,0.000703194,3.44219,8.93402,8.91803,35.9167,32.2124,0.0969881,0,0,7652.78,2906.49,4.20014
11,120654,2010-12-14 22:07:31,0.000883803,3.42665,9.82178,9.80939,39.4847,35.4372,0.0940945,0,0,7672.28,2918.69,4.2003
12,131571,2010-12-15 01:09:29,0.000703194,3.42098,10.7146,10.7034,43.0693,38.6751,0.0948198,0,0,7629.95,2927.33,4.20014
13,142493,2010-12-15 04:11:32,0.000883803,3.42034,11.6089,11.5977,46.6589,41.915,0.0955439,0,0,7633.4,2928.27,4.20014
14,153435,2010-12-15 07:13:56,0.000703194,3.44883,12.5013,12.4822,50.2409,45.1091,0.0958035,0,0,7685.36,2896.41,4.20014
15,164323,2010-12-15 10:15:26,0.000883803,3.45465,13.3855,13.3638,53.7958,48.2909,0.0978845,0,0,7642.14,2886.57,4.20014
16,175205,2010-12-15 13:16:48,0.000703194,3.44802,14.2676,14.2468,57.3423,51.4799,0.0961798,0,0,7630.17,2891.24,4.2003
17,186081,2010-12-15 16:18:06,0.000883803,3.44786,15.151,15.1293,60.8928,54.6686,0.0970756,0,0,7625.91,2889.85,4.2003
18,196962,2010-12-15 19:19:28,0.000522585,3.45028,16.0333,16.0103,64.4398,57.8505,0.0956303,0,0,7636.25,2885,4.20014
19,207863,2010-12-15 22:21:10,0.000703194,3.43296,16.915,16.896,67.9838,61.0553,0.0947342,0,0,7640.41,2900.12,4.20014
20,218731,2010-12-16 01:22:19,0.000341975,3.43037,17.8015,17.7828,71.5438,64.266,0.0947342,0,0,7604.28,2903.7,4.20014
21,229598,2010-12-16 04:23:28,0.00106441,3.42924,18.6886,18.6698,75.1056,67.4779,0.0947342,0,0,7603,2904.31,4.20014
22,240486,2010-12-16 07:24:58,0.000522585,3.45886,19.5733,19.5461,78.6587,70.6396,0.0956303,0,0,7658.79,2869.36,4.20014
23,251333,2010-12-16 10:25:45,0.000703194,3.4634,20.4491,20.4196,82.1814,73.7889,0.0958035,0,0,7626.03,2860.19,4.2003
24,262149,2010-12-16 13:26:03,0.000883803,3.46145,21.3228,21.2931,85.6957,76.9401,0.0970756,0,0,7596.09,2860.4,4.20014
25,272968,2010-12-16 16:26:23,0.000883803,3.46518,22.1964,22.1648,89.2097,80.0839,0.0977963,0,0,7604.38,2854.57,4.2003
26,283779,2010-12-16 19:26:36,0.000703194,3.46793,23.0681,23.0349,92.7166,83.2208,0.0964407,0,0,7601.76,2849.11,4.2003
27,294622,2010-12-16 22:27:20,0.000883803,3.43604,23.94,23.9152,96.2244,86.4064,0.0961798,0,0,7600.55,2882.55,4.2003
28,305441,2010-12-17 01:27:40,0.000522585,3.43086,24.8215,24.798,99.7645,89.6041,0.0954577,0,0,7567.7,2890.73,4.2003
29,316261,2010-12-17 04:28:02,0.000883803,3.42924,25.7049,25.6817,103.311,92.806,0.0945634,0,0,7566.94,2893.43,4.20014
30,323849,2010-12-17 06:34:30,0.000703194,3.45287,26.4389,26.4194,106.231,95.4445,0.0971633,0,0,4811.71,2415.37,4.20014
31,334764,2010-12-17 09:36:27,0.000883803,3.45967,27.3229,27.291,109.784,98.5918,0.0978845,0,0,7701.93,2853.87,4.20014
32,345567,2010-12-17 12:36:31,0.000341975,3.45433,28.1962,28.1643,113.295,101.748,0.0956303,0,0,7583.1,2859.63,4.20014
33,356339,2010-12-17 15:36:04,0.000883803,3.4498,29.0705,29.0391,116.808,104.911,0.0947342,0,0,7547.34,2864.4,4.20014
34,367108,2010-12-17 18:35:35,0.000522585,3.44996,29.9457,29.9135,120.325,108.073,0.0940094,0,0,7545.9,2863.4,4.20014
35,377891,2010-12-17 21:35:19,0.000883803,3.43264,30.8204,30.7927,123.839,111.256,0.0931148,0,0,7543.39,2878.85,4.20014
36,388663,2010-12-18 00:34:52,0.000703194,3.42406,31.7015,31.676,127.375,114.46,0.0931148,0,0,7519.77,2892.12,4.20014
37,399440,2010-12-18 03:34:30,0.000522585,3.42098,32.5854,32.5605,130.921,117.67,0.0930308,0,0,7521.43,2895.73,4.20014
38,410216,2010-12-18 06:34:07,0.000883803,3.42034,33.4702,33.4454,134.47,120.881,0.0923886,0,0,7518.3,2897.29,4.20014
39,420976,2010-12-18 09:33:29,0.000883803,3.42001,34.3552,34.3303,138.02,124.093,0.0939245,0,0,7503.46,2897.09,4.2003
40,431743,2010-12-18 12:32:58,0.000703194,3.4192,35.2406,35.2155,141.57,127.307,0.0939245,0,0,7509.42,2897.7,4.20014
41,442506,2010-12-18 15:32:22,0.000883803,3.41823,36.126,36.1007,145.121,130.521,0.0953716,0,0,7504.18,2898.39,4.20014
42,453262,2010-12-18 18:31:38,0.000883803,3.41839,37.0115,36.9857,148.671,133.734,0.0931148,0,0,7497.79,2897.58,4.20014
43,464009,2010-12-18 21:30:47,0.000703194,3.41807,37.8967,37.8706,152.221,136.947,0.0923886,0,0,7490.32,2897.03,4.20014
44,474739,2010-12-19 00:29:39,0.000703194,3.41775,38.7817,38.7553,155.768,140.16,0.0946487,0,0,7473.7,2896.55,4.20014
45,485477,2010-12-19 03:28:38,0.000883803,3.41775,39.6667,39.6398,159.317,143.372,0.0939245,0,0,7482.15,2895.86,4.20014
46,496213,2010-12-19 06:27:35,0.00106441,3.41791,40.5515,40.5241,162.864,146.584,0.093199,0,0,7480.51,2895.08,4.20014
47,506936,2010-12-19 09:26:19,0.000703194,3.41775,41.436,41.4079,166.409,149.794,0.0946487,0,0,7469.09,2893.7,4.20014
48,517656,2010-12-19 12:25:01,0.000883803,3.41823,42.32,42.2913,169.953,153.002,0.0939245,0,0,7468.12,2892.11,4.20014
49,525399,2010-12-19 14:34:05,0.000522585,3.40641,43.0679,43.0488,172.926,155.728,0.0947342,0,0,4902.79,2480.35,4.20014
50,536232,2010-12-19 17:34:39,0.000883803,3.41677,43.9603,43.9314,176.503,158.934,0.0947342,0,0,7582.67,2889.56,4.20014