File: battery-analytics-lab/data/raw/calce/CS2_35_1_28_11_Statistics_1-008.csv
Cycle_Index,Test_Time(s),Date_Time,Current(A),Voltage(V),Charge_Capacity(Ah),Discharge_Capacity(Ah),Charge_Energy(Wh),Discharge_Energy(Wh),Internal_Resistance(Ohm),AC_Impedance(Ohm),ACI_Phase_Angle(Deg),Charge_Time(s),DisCharge_Time(s),Vmax_On_Cycle(V)
1,8710.51,2011-01-24 13:19:26,0.00106441,3.61994,0.603726,0.606471,2.47503,2.12801,0.107884,0,0,6364.36,1986.09,4.2003
2,17201.5,2011-01-24 15:40:58,0.000703194,3.62982,1.21505,1.19933,4.97392,4.20138,0.108695,0,0,6189.38,1941.53,4.2003
3,25521.3,2011-01-24 17:59:39,0.000522585,3.63726,1.80841,1.78265,7.40203,6.23683,0.110928,0,0,6049.47,1910.28,4.20014
4,33778.5,2011-01-24 20:17:17,0.000703194,3.6426,2.39143,2.35888,9.78992,8.24365,0.110118,0,0,6009.9,1887.17,4.2003
5,41987,2011-01-24 22:34:07,0.000883803,3.64633,2.96738,2.92955,12.15,10.2292,0.11194,0,0,5979.52,1868.91,4.2003
6,50154.5,2011-01-25 00:50:16,0.000522585,3.65037,3.53791,3.49529,14.4889,12.195,0.112446,0,0,5954.61,1852.81,4.2003
7,58268.5,2011-01-25 03:05:31,0.000703194,3.65377,4.10328,4.05618,16.8072,14.1425,0.111738,0,0,5916.98,1836.92,4.2003
8,66354.9,2011-01-25 05:20:19,0.000703194,3.65458,4.66416,4.61486,19.1077,16.0818,0.111028,0,0,5896.65,1829.69,4.2003
9,74417.4,2011-01-25 07:34:42,0.000883803,3.65685,5.22276,5.16996,21.3991,18.0073,0.112446,0,0,5884.51,1817.97,4.2003
10,82467.5,2011-01-25 09:48:54,0.000703194,3.65426,5.77839,5.72719,23.6788,19.9429,0.109507,0,0,5865.1,1824.94,4.2003
11,90486.6,2011-01-25 12:02:34,0.000341975,3.65588,6.33581,6.28215,25.9648,21.8705,0.110928,0,0,5841.5,1817.49,4.2003
12,98476.1,2011-01-25 14:15:45,0.000703194,3.6609,6.8907,6.83107,28.241,23.7735,0.111839,0,0,5831.79,1797.63,4.2003
13,106461,2011-01-25 16:28:51,0.000703194,3.65798,7.44007,7.38238,30.496,25.6879,0.111839,0,0,5819.79,1805.5,4.2003
14,114397,2011-01-25 18:41:08,0.000703194,3.65847,7.99145,7.93274,32.7579,27.5985,0.113255,0,0,5773.31,1801.94,4.2003
15,122297,2011-01-25 20:52:49,0.000341975,3.66851,8.54053,8.47026,35.0106,29.4571,0.113357,0,0,5779.7,1760.36,4.2003
16,130166,2011-01-25 23:03:59,0.000341975,3.66996,9.07752,9.00441,37.2165,31.3027,0.11194,0,0,5759.29,1749.38,4.2003
17,138023,2011-01-26 01:14:57,0.000522585,3.66932,9.6116,9.53856,39.4108,33.1485,0.114167,0,0,5747.98,1749.12,4.2003
18,145864,2011-01-26 03:25:40,0.000341975,3.66414,10.1466,10.0781,41.6081,35.0179,0.113357,0,0,5714.12,1766.92,4.2003
19,153723,2011-01-26 05:36:40,0.000703194,3.66252,10.6865,10.6193,43.8244,36.8942,0.112446,0,0,5726.4,1772.28,4.2003
20,161579,2011-01-26 07:47:37,0.00106441,3.66252,11.2278,11.1601,46.046,38.7698,0.112547,0,0,5724.43,1771.28,4.2003
21,169423,2011-01-26 09:58:23,0.000703194,3.66171,11.769,11.7013,48.2668,40.6476,0.112751,0,0,5712.54,1772.24,4.2003
22,177277,2011-01-26 12:09:18,0.00106441,3.65653,12.311,12.2484,50.4907,42.551,0.111738,0,0,5701.93,1791.86,4.2003
23,185119,2011-01-26 14:20:01,0.000883803,3.65847,12.8584,12.792,52.7351,44.4405,0.114167,0,0,5701.86,1779.88,4.2003
24,192919,2011-01-26 16:30:02,0.00106441,3.66187,13.402,13.3303,54.9645,46.3105,0.112547,0,0,5676.9,1763.13,4.2003
25,200670,2011-01-26 18:39:14,0.000883803,3.66527,13.9396,13.8637,57.1703,48.1598,0.11346,0,0,5643.69,1746.75,4.2003
26,208399,2011-01-26 20:48:05,0.000703194,3.66689,14.473,14.3947,59.3598,50,0.11346,0,0,5630.83,1738.77,4.2003
27,216103,2011-01-26 22:56:30,0.000883803,3.66932,15.0039,14.9225,61.5391,51.8277,0.11346,0,0,5615.61,1728.41,4.2003
28,223763,2011-01-27 01:04:11,0.000703194,3.67482,15.5318,15.4432,63.7065,53.6285,0.114977,0,0,5594.24,1705.16,4.2003
29,231366,2011-01-27 03:10:55,0.000883803,3.68146,16.0514,15.9541,65.842,55.3897,0.115185,0,0,5570.2,1673.3,4.2003
30,238919,2011-01-27 05:16:49,0.000522585,3.6834,16.5623,16.4612,67.9428,57.1358,0.115786,0,0,5531.62,1660.55,4.2003
31,246450,2011-01-27 07:22:22,0.000883803,3.68259,17.0697,16.9684,70.0298,58.8837,0.114977,0,0,5510.53,1660.85,4.2003
32,253955,2011-01-27 09:27:27,0.000883803,3.68389,17.5769,17.4731,72.1155,60.6226,0.113665,0,0,5491.56,1653.05,4.20014
33,261426,2011-01-27 11:32:00,0.000883803,3.68858,18.0817,17.9728,74.1914,62.3414,0.11427,0,0,5475.39,1636.02,4.2003
34,268862,2011-01-27 13:35:57,0.000161366,3.68777,18.5812,18.471,76.2465,64.0555,0.115682,0,0,5443.92,1631.44,4.2003
35,276278,2011-01-27 15:39:34,0.000522585,3.69198,19.0794,18.9646,78.2964,65.7513,0.116491,0,0,5439.53,1616.38,4.20014
36,283647,2011-01-27 17:42:24,0.000703194,3.69392,19.5728,19.4551,80.3269,67.4361,0.114477,0,0,5402.19,1606.6,4.20014