File: battery-analytics-lab/data/raw/calce/CS2_35_1_10_11_Statistics_1-008.csv
Cycle_Index,Test_Time(s),Date_Time,Current(A),Voltage(V),Charge_Capacity(Ah),Discharge_Capacity(Ah),Charge_Energy(Wh),Discharge_Energy(Wh),Internal_Resistance(Ohm),AC_Impedance(Ohm),ACI_Phase_Angle(Deg),Charge_Time(s),DisCharge_Time(s),Vmax_On_Cycle(V)
1,4500.09,2011-01-03 11:52:56,0.000341975,3.40447,0.0475726,0.884058,0.199787,3.21946,0.0946487,0,0,1246.14,2893.89,4.20046
2,14919.9,2011-01-03 14:46:37,0.000703194,3.41483,0.925134,1.75401,3.71339,6.38614,0.0954577,0,0,7212.01,2847.75,4.20014
3,25327.2,2011-01-03 17:40:06,0.000341975,3.46097,1.78872,2.59827,7.17443,9.439,0.0986045,0,0,7283.32,2763.93,4.20014
4,35662,2011-01-03 20:32:22,0.000522585,3.47861,2.62905,3.42869,10.5552,12.431,0.0978845,0,0,7255.65,2719,4.20014
5,45912,2011-01-03 23:23:13,0.000703194,3.44721,3.46086,4.27032,13.904,15.4782,0.0964407,0,0,7134.6,2755.32,4.20014
6,56176.9,2011-01-04 02:14:19,0.000341975,3.44251,4.30216,5.11266,17.2839,18.5306,0.0971633,0,0,7147.31,2757.55,4.20014
7,66430.8,2011-01-04 05:05:14,0.000161366,3.44381,5.14369,5.95301,20.6639,21.5766,0.097973,0,0,7142.78,2751.07,4.20014
8,76714.6,2011-01-04 07:56:39,0.000522585,3.4927,5.97879,6.76908,24.0233,24.5124,0.100221,0,0,7251.59,2672.07,4.2003
9,83594.4,2011-01-04 09:51:20,0.000341975,3.50371,6.63767,7.44036,26.6547,26.897,0.0989615,0,0,4321.9,2197.81,4.20014
10,93973.4,2011-01-04 12:44:21,0.000883803,3.5084,7.46064,8.24263,29.9758,29.7756,0.0996824,0,0,7391.97,2626.99,4.2003
11,104153,2011-01-04 15:34:02,0.000341975,3.51439,8.2631,9.04009,33.2163,32.6335,0.100402,0,0,7208.47,2611.2,4.2003
12,114270,2011-01-04 18:22:40,0.000522585,3.51795,9.06029,9.83417,36.4365,35.4787,0.100584,0,0,7156.72,2600.13,4.2003
13,124390,2011-01-04 21:11:21,0.000883803,3.51989,9.85297,10.6248,39.64,38.308,0.0995924,0,0,7171.02,2588.83,4.2003
14,134437,2011-01-04 23:58:49,0.000161366,3.49156,10.6468,11.4288,42.8448,41.202,0.0987827,0,0,7054.75,2631.96,4.20014
15,144519,2011-01-05 02:46:52,0.000522585,3.48493,11.4514,12.236,46.0881,44.1117,0.0995025,0,0,7079.26,2642.74,4.20014
16,154575,2011-01-05 05:34:30,0.000883803,3.50257,12.2588,13.0362,49.3408,46.9935,0.100402,0,0,7076.12,2620.23,4.20014
17,164649,2011-01-05 08:22:25,0.000703194,3.53139,13.0542,13.8195,52.5525,49.7965,0.101212,0,0,7149.19,2564.64,4.2003
18,174680,2011-01-05 11:09:37,0.000161366,3.53236,13.8367,14.6,55.7166,52.589,0.100402,0,0,7115.44,2555.6,4.2003
19,184684,2011-01-05 13:56:23,0.000883803,3.53867,14.6166,15.3763,58.8701,55.3646,0.0996824,0,0,7101.83,2542.1,4.2003
20,194669,2011-01-05 16:42:48,0.000703194,3.54078,15.3926,16.1501,62.0092,58.1308,0.101212,0,0,7090.66,2533.75,4.2003
21,204603,2011-01-05 19:28:24,0.000522585,3.55907,16.1651,16.9134,65.1351,60.8509,0.100584,0,0,7074.52,2499.38,4.2003
22,214622,2011-01-05 22:15:24,0.000883803,3.52702,16.9295,17.6901,68.2321,63.6327,0.0996824,0,0,7116.13,2542.85,4.2003
23,224563,2011-01-06 01:01:07,0.000883803,3.51569,17.7084,18.4734,71.379,66.4461,0.098872,0,0,7016.56,2564.81,4.20014
24,234514,2011-01-06 03:46:59,0.000522585,3.50872,18.4925,19.2601,74.5447,69.2751,0.0995924,0,0,7015.03,2575.85,4.20014
25,244386,2011-01-06 06:31:32,0.000703194,3.55001,19.2764,20.027,77.7072,72.0153,0.101212,0,0,7000.77,2510.97,4.2003
26,254284,2011-01-06 09:16:31,0.000883803,3.5636,20.0409,20.7837,80.8024,74.7113,0.100675,0,0,7060.08,2478.11,4.2003
27,264140,2011-01-06 12:00:48,0.000703194,3.55875,20.7977,21.541,83.8693,77.4117,0.102021,0,0,7015.74,2479.94,4.2003
28,273991,2011-01-06 14:45:00,0.000703194,3.56182,21.5548,22.2955,86.9364,80.1006,0.100675,0,0,7020.1,2470.62,4.2003
29,283800,2011-01-06 17:28:31,0.000883803,3.55988,22.3093,23.0475,89.9937,82.7813,0.101303,0,0,6986.83,2462.33,4.2003
30,293616,2011-01-06 20:12:08,0.000703194,3.56587,23.0602,23.7969,93.0368,85.4491,0.101303,0,0,7001.27,2454.15,4.2003
31,303425,2011-01-06 22:55:38,0.00106441,3.56895,23.8093,24.5409,96.0739,88.0957,0.102831,0,0,7013.1,2436.19,4.2003
32,313203,2011-01-07 01:38:38,0.000703194,3.57089,24.5529,25.2828,99.0902,90.734,0.100584,0,0,6988.66,2429.5,4.2003
33,322975,2011-01-07 04:21:31,0.000883803,3.57121,25.2945,26.026,102.099,93.3766,0.103547,0,0,6978.16,2433.43,4.2003
34,332748,2011-01-07 07:04:25,0.000883803,3.57316,26.0376,26.7645,105.113,96.0019,0.102831,0,0,6994.3,2418.41,4.2003
35,342487,2011-01-07 09:46:45,0.000883803,3.57332,26.7759,27.5022,108.109,98.6237,0.101303,0,0,6963.51,2415.55,4.2003
36,352218,2011-01-07 12:28:58,0.000341975,3.56733,27.5147,28.2458,111.105,101.271,0.102021,0,0,6936.45,2435.18,4.2003
37,361976,2011-01-07 15:11:37,0.000161366,3.55308,28.261,28.9983,114.131,103.961,0.101929,0,0,6933.67,2463.74,4.2003
38,371727,2011-01-07 17:54:09,0.000341975,3.54903,29.0146,29.7539,117.181,106.664,0.100493,0,0,6916.99,2474.19,4.20014
39,381470,2011-01-07 20:36:34,0.000703194,3.55405,29.77,30.5043,120.239,109.346,0.101303,0,0,6926.11,2456.85,4.20014
40,391183,2011-01-07 23:18:28,0.000522585,3.55373,30.5205,31.2574,123.277,112.039,0.10112,0,0,6887.43,2465.76,4.2003
41,400891,2011-01-08 02:00:17,0.000341975,3.55324,31.2737,32.0079,126.325,114.722,0.100584,0,0,6890.67,2457.21,4.2003
42,410591,2011-01-08 04:41:58,0.000522585,3.55049,32.0244,32.7624,129.364,117.421,0.100402,0,0,6869.39,2470.5,4.20014
43,420312,2011-01-08 07:24:00,0.000703194,3.54855,32.7792,33.5182,132.419,120.126,0.102646,0,0,6885.89,2474.6,4.20014
44,430019,2011-01-08 10:05:49,0.000341975,3.54855,33.535,34.2712,135.476,122.821,0.100311,0,0,6881.87,2465.55,4.20014
45,439719,2011-01-08 12:47:30,0.000883803,3.54644,34.2882,35.028,138.524,125.53,0.100493,0,0,6861.72,2477.93,4.2003
46,449413,2011-01-08 15:29:05,0.000161366,3.54661,35.0451,35.7819,141.585,128.229,0.101929,0,0,6865.62,2468.41,4.20014
47,459090,2011-01-08 18:10:23,0.000703194,3.54774,35.799,36.5353,144.635,130.927,0.100584,0,0,6849.65,2466.73,4.20014
48,468761,2011-01-08 20:51:35,0.000703194,3.5492,36.5523,37.2875,147.682,133.619,0.101303,0,0,6847.72,2463.16,4.20014
49,478420,2011-01-08 23:32:36,0.000883803,3.55098,37.3044,38.0385,150.725,136.306,0.101303,0,0,6840.33,2458.85,4.20014
50,488062,2011-01-09 02:13:19,0.000883803,3.55373,38.055,38.7875,153.763,138.985,0.101212,0,0,6829.2,2452.55,4.20014